timestamp,RAW_TP9,RAW_AF7,RAW_AF8,RAW_TP10
1,802.2344360351562,805.8607788085938,805.4578857421875,797.3992919921875
2,797.8021850585938,803.040283203125,803.4432373046875,803.8461303710938
3,798.2051391601562,800.6226806640625,800.6226806640625,806.6666870117188
4,794.981689453125,799.4139404296875,798.2051391601562,806.2637329101562
5,791.3552856445312,800.6226806640625,796.1904907226562,807.069580078125
6,796.5933837890625,802.2344360351562,801.4285888671875,798.2051391601562
7,798.6080322265625,800.6226806640625,801.025634765625,793.3699340820312
8,799.010986328125,800.6226806640625,795.7875366210938,792.967041015625
9,800.2197875976562,798.2051391601562,797.3992919921875,796.1904907226562
10,794.981689453125,794.1758422851562,795.3846435546875,792.967041015625
11,788.1318969726562,792.967041015625,792.1611938476562,784.1025390625
12,791.7582397460938,790.1465454101562,794.981689453125,785.7142944335938
13,789.7435913085938,790.5494384765625,799.4139404296875,789.7435913085938
14,786.1171875,790.952392578125,802.6373901367188,793.7728881835938
15,786.5201416015625,789.7435913085938,801.025634765625,797.8021850585938
16,786.1171875,790.952392578125,799.8168334960938,802.2344360351562
17,785.3113403320312,792.1611938476562,805.4578857421875,796.1904907226562
18,783.2966918945312,789.7435913085938,802.2344360351562,789.3406372070312
19,784.908447265625,784.908447265625,795.7875366210938,787.7289428710938
20,786.5201416015625,786.1171875,797.3992919921875,786.5201416015625
21,786.923095703125,790.952392578125,797.8021850585938,790.1465454101562
22,794.1758422851562,792.967041015625,798.2051391601562,798.2051391601562
23,799.4139404296875,786.923095703125,799.010986328125,802.6373901367188
24,803.4432373046875,785.3113403320312,800.2197875976562,802.2344360351562
25,795.7875366210938,787.7289428710938,799.4139404296875,790.1465454101562
26,783.2966918945312,788.1318969726562,794.1758422851562,775.2380981445312
27,782.087890625,779.6703491210938,792.5640869140625,780.0732421875
28,787.3259887695312,780.4761962890625,796.5933837890625,799.010986328125
29,793.7728881835938,787.7289428710938,801.4285888671875,798.6080322265625
30,794.5787353515625,788.937744140625,805.4578857421875,796.1904907226562
31,788.937744140625,788.1318969726562,803.040283203125,799.010986328125
32,784.908447265625,790.5494384765625,801.4285888671875,796.5933837890625
33,787.7289428710938,796.5933837890625,805.4578857421875,796.5933837890625
34,794.1758422851562,797.3992919921875,808.6813354492188,801.8314819335938
35,793.7728881835938,790.5494384765625,803.040283203125,801.025634765625
36,790.1465454101562,787.3259887695312,796.5933837890625,798.2051391601562
37,790.1465454101562,790.1465454101562,798.2051391601562,798.6080322265625
38,792.5640869140625,788.937744140625,797.8021850585938,801.8314819335938
39,800.2197875976562,788.1318969726562,798.6080322265625,803.040283203125
40,799.4139404296875,792.967041015625,799.8168334960938,796.996337890625
41,791.7582397460938,792.967041015625,796.5933837890625,789.3406372070312
42,792.1611938476562,793.3699340820312,795.7875366210938,790.5494384765625
43,795.3846435546875,794.981689453125,796.5933837890625,791.3552856445312
44,793.7728881835938,790.5494384765625,793.7728881835938,786.1171875
45,796.996337890625,787.7289428710938,792.5640869140625,789.3406372070312
46,796.996337890625,784.5054931640625,794.5787353515625,793.7728881835938
47,790.5494384765625,785.3113403320312,796.5933837890625,790.5494384765625
48,790.5494384765625,791.3552856445312,795.7875366210938,790.952392578125
49,794.5787353515625,787.7289428710938,793.7728881835938,793.7728881835938
50,796.5933837890625,786.1171875,792.5640869140625,796.1904907226562
51,793.3699340820312,787.7289428710938,790.952392578125,792.5640869140625
52,792.967041015625,786.923095703125,791.3552856445312,791.7582397460938
53,792.5640869140625,786.5201416015625,796.996337890625,802.6373901367188
54,791.3552856445312,782.087890625,800.2197875976562,807.87548828125
55,792.5640869140625,788.937744140625,802.2344360351562,804.6520385742188
56,797.8021850585938,791.3552856445312,806.2637329101562,801.025634765625
57,794.981689453125,783.6996459960938,802.2344360351562,795.3846435546875
58,789.7435913085938,789.3406372070312,798.2051391601562,793.3699340820312
59,791.3552856445312,793.3699340820312,799.8168334960938,790.5494384765625
60,794.5787353515625,790.952392578125,806.2637329101562,793.3699340820312
61,796.5933837890625,794.5787353515625,806.2637329101562,802.2344360351562
62,794.1758422851562,793.7728881835938,797.8021850585938,805.4578857421875
63,787.3259887695312,788.1318969726562,792.967041015625,794.5787353515625
64,786.5201416015625,790.952392578125,796.996337890625,789.7435913085938
65,793.7728881835938,790.1465454101562,796.5933837890625,790.1465454101562
66,794.981689453125,788.937744140625,793.7728881835938,790.1465454101562
67,794.1758422851562,793.3699340820312,793.7728881835938,790.5494384765625
68,796.5933837890625,796.5933837890625,793.7728881835938,791.3552856445312
69,798.2051391601562,796.1904907226562,796.5933837890625,786.923095703125
70,799.010986328125,793.7728881835938,801.4285888671875,787.7289428710938
71,795.3846435546875,794.981689453125,798.2051391601562,789.3406372070312
72,790.952392578125,795.7875366210938,793.3699340820312,782.893798828125
73,787.3259887695312,792.967041015625,790.952392578125,785.7142944335938
74,779.6703491210938,786.923095703125,792.967041015625,786.1171875
75,780.4761962890625,786.923095703125,791.7582397460938,785.3113403320312
76,783.2966918945312,788.937744140625,788.1318969726562,788.937744140625
77,783.2966918945312,788.1318969726562,789.3406372070312,795.3846435546875
78,786.5201416015625,788.1318969726562,794.1758422851562,803.4432373046875
79,788.937744140625,790.5494384765625,800.6226806640625,796.996337890625
80,792.5640869140625,790.5494384765625,800.6226806640625,793.3699340820312
81,796.5933837890625,784.5054931640625,797.3992919921875,799.8168334960938
82,790.1465454101562,784.1025390625,796.1904907226562,802.2344360351562
83,787.7289428710938,790.5494384765625,801.025634765625,801.025634765625
84,788.1318969726562,790.1465454101562,806.2637329101562,799.8168334960938
85,790.1465454101562,788.5347900390625,804.2490844726562,787.3259887695312
86,792.5640869140625,787.7289428710938,797.8021850585938,784.908447265625
87,787.3259887695312,786.923095703125,800.2197875976562,792.967041015625
88,790.1465454101562,787.3259887695312,798.6080322265625,795.7875366210938
89,794.5787353515625,786.5201416015625,794.981689453125,804.2490844726562
90,798.6080322265625,789.7435913085938,802.2344360351562,805.4578857421875
91,801.8314819335938,794.981689453125,801.8314819335938,800.6226806640625
92,799.8168334960938,790.952392578125,797.8021850585938,798.6080322265625
93,796.1904907226562,788.937744140625,802.2344360351562,799.010986328125
94,797.8021850585938,793.3699340820312,803.4432373046875,800.6226806640625
95,801.8314819335938,792.5640869140625,801.025634765625,802.6373901367188
96,794.981689453125,790.952392578125,799.4139404296875,803.4432373046875
97,791.3552856445312,792.5640869140625,798.2051391601562,800.2197875976562
98,799.4139404296875,792.5640869140625,801.8314819335938,804.2490844726562
99,799.4139404296875,792.967041015625,803.4432373046875,805.054931640625
100,794.981689453125,793.7728881835938,797.8021850585938,801.4285888671875
101,799.8168334960938,792.5640869140625,796.5933837890625,802.6373901367188
102,797.3992919921875,790.952392578125,801.025634765625,802.2344360351562
103,794.981689453125,790.952392578125,799.4139404296875,801.025634765625
104,793.7728881835938,789.3406372070312,795.3846435546875,804.6520385742188
105,796.5933837890625,788.5347900390625,799.010986328125,801.025634765625
106,799.4139404296875,786.923095703125,801.8314819335938,796.1904907226562
107,793.7728881835938,787.3259887695312,800.2197875976562,799.8168334960938
108,795.7875366210938,792.1611938476562,800.2197875976562,794.981689453125
109,794.1758422851562,794.5787353515625,798.6080322265625,797.3992919921875
110,792.1611938476562,793.7728881835938,797.8021850585938,790.1465454101562
111,790.1465454101562,786.923095703125,794.981689453125,780.879150390625
112,792.5640869140625,787.7289428710938,796.996337890625,788.1318969726562
113,792.1611938476562,790.952392578125,798.2051391601562,790.1465454101562
114,791.7582397460938,790.1465454101562,799.010986328125,794.5787353515625
115,796.1904907226562,791.3552856445312,799.010986328125,803.8461303710938
116,798.6080322265625,799.4139404296875,800.6226806640625,800.6226806640625
117,803.040283203125,799.4139404296875,800.6226806640625,795.7875366210938
118,803.8461303710938,790.5494384765625,797.3992919921875,794.5787353515625
119,799.010986328125,790.952392578125,797.8021850585938,787.3259887695312
120,796.5933837890625,792.1611938476562,797.3992919921875,787.3259887695312
121,796.5933837890625,788.5347900390625,795.3846435546875,788.5347900390625
122,796.5933837890625,790.952392578125,796.5933837890625,788.937744140625
123,796.5933837890625,793.3699340820312,799.8168334960938,791.7582397460938
124,801.4285888671875,790.952392578125,802.2344360351562,795.3846435546875
125,801.025634765625,787.7289428710938,802.6373901367188,795.7875366210938
126,792.967041015625,784.1025390625,798.6080322265625,796.996337890625
127,788.5347900390625,783.2966918945312,796.996337890625,792.967041015625
128,791.7582397460938,788.5347900390625,797.8021850585938,789.3406372070312
129,796.5933837890625,789.3406372070312,799.8168334960938,796.5933837890625
130,800.2197875976562,789.7435913085938,800.6226806640625,808.6813354492188
131,794.1758422851562,791.3552856445312,801.4285888671875,799.4139404296875
132,788.5347900390625,788.1318969726562,797.8021850585938,788.937744140625
133,790.1465454101562,785.7142944335938,795.7875366210938,794.981689453125
134,791.7582397460938,785.7142944335938,799.010986328125,799.4139404296875
135,792.967041015625,786.923095703125,799.010986328125,797.3992919921875
136,794.981689453125,789.3406372070312,799.4139404296875,792.967041015625
137,798.2051391601562,788.5347900390625,797.8021850585938,798.6080322265625
138,800.2197875976562,788.5347900390625,795.7875366210938,802.2344360351562
139,799.8168334960938,790.952392578125,799.010986328125,790.952392578125
140,795.3846435546875,792.967041015625,800.6226806640625,792.5640869140625
141,796.996337890625,788.1318969726562,796.996337890625,796.996337890625
142,795.7875366210938,786.1171875,791.7582397460938,792.5640869140625
143,795.7875366210938,792.1611938476562,794.981689453125,792.1611938476562
144,796.1904907226562,795.7875366210938,796.5933837890625,794.981689453125
145,793.7728881835938,794.5787353515625,796.5933837890625,795.3846435546875
146,793.3699340820312,796.5933837890625,802.2344360351562,796.996337890625
147,795.7875366210938,797.3992919921875,801.025634765625,799.010986328125
148,805.4578857421875,794.981689453125,801.4285888671875,799.4139404296875
149,807.87548828125,794.5787353515625,802.6373901367188,801.8314819335938
150,797.3992919921875,792.967041015625,800.2197875976562,798.2051391601562
151,790.952392578125,791.3552856445312,800.6226806640625,799.4139404296875
152,789.7435913085938,793.7728881835938,803.8461303710938,801.4285888671875
153,797.3992919921875,791.3552856445312,806.6666870117188,805.054931640625
154,800.6226806640625,791.7582397460938,807.069580078125,804.2490844726562
155,795.7875366210938,790.1465454101562,805.054931640625,793.7728881835938
156,794.5787353515625,790.1465454101562,804.2490844726562,799.010986328125
157,796.996337890625,796.5933837890625,799.4139404296875,802.2344360351562
158,799.4139404296875,794.5787353515625,798.2051391601562,799.8168334960938
159,807.87548828125,795.3846435546875,802.2344360351562,802.2344360351562
160,809.4871826171875,794.981689453125,801.025634765625,806.2637329101562
161,805.4578857421875,792.967041015625,798.2051391601562,811.5018310546875
162,803.8461303710938,792.967041015625,797.3992919921875,810.6959838867188
163,802.2344360351562,792.1611938476562,796.996337890625,809.4871826171875
164,804.2490844726562,792.5640869140625,795.3846435546875,811.90478515625
165,807.87548828125,787.7289428710938,796.996337890625,815.93408203125
166,805.054931640625,788.937744140625,801.8314819335938,803.040283203125
167,796.1904907226562,788.937744140625,799.8168334960938,790.952392578125
168,792.5640869140625,781.2820434570312,793.7728881835938,791.7582397460938
169,794.981689453125,784.1025390625,794.5787353515625,794.1758422851562
170,799.8168334960938,786.923095703125,793.3699340820312,796.1904907226562
171,803.8461303710938,789.7435913085938,794.1758422851562,794.981689453125
172,796.996337890625,790.5494384765625,791.7582397460938,791.3552856445312
173,792.967041015625,791.3552856445312,791.3552856445312,793.7728881835938
174,795.7875366210938,792.5640869140625,798.2051391601562,795.7875366210938
175,792.1611938476562,792.1611938476562,801.4285888671875,791.3552856445312
176,789.3406372070312,793.3699340820312,799.4139404296875,794.5787353515625
177,789.3406372070312,794.5787353515625,801.8314819335938,796.996337890625
178,787.3259887695312,795.7875366210938,804.2490844726562,799.010986328125
179,788.5347900390625,792.967041015625,801.8314819335938,805.4578857421875
180,792.5640869140625,788.5347900390625,803.4432373046875,805.4578857421875
181,791.7582397460938,788.937744140625,803.040283203125,800.2197875976562
182,790.1465454101562,788.937744140625,797.8021850585938,793.3699340820312
183,791.7582397460938,794.1758422851562,799.010986328125,795.3846435546875
184,793.7728881835938,797.8021850585938,801.4285888671875,802.6373901367188
185,799.4139404296875,792.5640869140625,798.6080322265625,803.040283203125
186,799.4139404296875,787.7289428710938,800.6226806640625,796.996337890625
187,799.8168334960938,788.5347900390625,805.054931640625,803.040283203125
188,798.6080322265625,788.5347900390625,803.8461303710938,810.6959838867188
189,792.967041015625,792.5640869140625,803.8461303710938,807.069580078125
190,797.8021850585938,794.1758422851562,807.4725341796875,807.069580078125
191,801.025634765625,788.1318969726562,807.069580078125,806.2637329101562
192,797.8021850585938,788.5347900390625,803.4432373046875,805.054931640625
193,800.6226806640625,792.1611938476562,804.6520385742188,807.87548828125
194,801.025634765625,788.1318969726562,801.025634765625,800.6226806640625
195,791.7582397460938,785.3113403320312,792.5640869140625,789.7435913085938
196,788.5347900390625,789.3406372070312,796.5933837890625,790.1465454101562
197,791.7582397460938,793.3699340820312,801.025634765625,790.1465454101562
198,794.981689453125,791.3552856445312,799.8168334960938,792.967041015625
199,799.8168334960938,787.3259887695312,797.8021850585938,805.054931640625
200,796.5933837890625,787.7289428710938,799.010986328125,800.6226806640625
201,793.3699340820312,788.937744140625,798.2051391601562,792.5640869140625
202,801.025634765625,786.923095703125,800.6226806640625,797.8021850585938
203,799.8168334960938,785.3113403320312,799.8168334960938,799.4139404296875
204,798.2051391601562,786.923095703125,799.010986328125,793.7728881835938
205,800.6226806640625,786.1171875,798.2051391601562,790.952392578125
206,799.4139404296875,780.879150390625,795.7875366210938,791.7582397460938
207,797.3992919921875,784.5054931640625,797.8021850585938,793.3699340820312
208,795.7875366210938,787.3259887695312,800.6226806640625,791.7582397460938
209,796.996337890625,785.3113403320312,797.3992919921875,794.981689453125
210,799.8168334960938,784.5054931640625,794.981689453125,806.6666870117188
211,799.8168334960938,787.3259887695312,801.4285888671875,813.113525390625
212,801.025634765625,791.3552856445312,805.054931640625,805.4578857421875
213,805.054931640625,790.952392578125,799.4139404296875,799.010986328125
214,807.4725341796875,793.3699340820312,798.2051391601562,802.6373901367188
215,806.6666870117188,790.952392578125,800.2197875976562,798.6080322265625
216,807.4725341796875,789.7435913085938,800.6226806640625,794.5787353515625
217,803.4432373046875,790.1465454101562,798.6080322265625,799.8168334960938
218,805.8607788085938,791.3552856445312,803.040283203125,808.2783813476562
219,810.6959838867188,792.967041015625,804.2490844726562,806.2637329101562
220,806.6666870117188,791.3552856445312,799.8168334960938,801.8314819335938
221,801.8314819335938,792.5640869140625,800.2197875976562,802.2344360351562
222,801.8314819335938,787.3259887695312,799.8168334960938,803.8461303710938
223,799.8168334960938,788.5347900390625,798.6080322265625,803.4432373046875
224,796.1904907226562,793.3699340820312,796.996337890625,799.010986328125
225,798.6080322265625,790.5494384765625,796.5933837890625,799.010986328125
226,799.010986328125,790.952392578125,800.6226806640625,800.6226806640625
227,798.6080322265625,789.7435913085938,800.6226806640625,796.1904907226562
228,800.2197875976562,786.5201416015625,798.2051391601562,799.010986328125
229,798.6080322265625,792.1611938476562,799.8168334960938,806.6666870117188
230,801.025634765625,795.7875366210938,802.2344360351562,803.4432373046875
231,809.084228515625,793.3699340820312,801.4285888671875,796.996337890625
232,807.069580078125,791.3552856445312,800.6226806640625,798.6080322265625
233,800.2197875976562,789.3406372070312,801.025634765625,798.2051391601562
234,798.6080322265625,789.3406372070312,799.8168334960938,793.7728881835938
235,796.5933837890625,790.952392578125,801.025634765625,793.3699340820312
236,796.5933837890625,794.5787353515625,803.040283203125,794.5787353515625
237,799.4139404296875,796.1904907226562,801.8314819335938,803.040283203125
238,796.996337890625,795.7875366210938,805.054931640625,808.6813354492188
239,799.4139404296875,797.3992919921875,807.87548828125,801.8314819335938
240,803.040283203125,796.996337890625,807.87548828125,801.8314819335938
241,799.8168334960938,795.3846435546875,807.4725341796875,801.8314819335938
242,796.1904907226562,797.8021850585938,804.2490844726562,799.010986328125
243,795.3846435546875,798.2051391601562,801.025634765625,799.8168334960938
244,796.1904907226562,794.1758422851562,801.4285888671875,800.6226806640625
245,797.8021850585938,793.7728881835938,799.010986328125,798.2051391601562
246,797.8021850585938,793.7728881835938,793.3699340820312,796.1904907226562
247,794.981689453125,791.3552856445312,794.1758422851562,792.1611938476562
248,798.6080322265625,794.1758422851562,796.996337890625,796.5933837890625
249,801.4285888671875,793.3699340820312,796.1904907226562,807.4725341796875
250,802.2344360351562,794.981689453125,801.4285888671875,810.6959838867188
251,806.2637329101562,798.2051391601562,800.6226806640625,808.2783813476562
252,804.6520385742188,792.5640869140625,798.2051391601562,801.025634765625
253,799.010986328125,791.7582397460938,801.8314819335938,799.8168334960938
254,795.7875366210938,791.3552856445312,798.2051391601562,801.025634765625
255,796.5933837890625,786.5201416015625,796.1904907226562,797.8021850585938
256,801.8314819335938,789.7435913085938,801.4285888671875,800.6226806640625
257,801.025634765625,789.7435913085938,800.6226806640625,800.6226806640625
258,796.1904907226562,788.937744140625,800.2197875976562,800.2197875976562
259,795.7875366210938,794.981689453125,802.2344360351562,803.4432373046875
260,797.3992919921875,795.3846435546875,801.8314819335938,804.2490844726562
261,797.8021850585938,791.7582397460938,804.6520385742188,811.098876953125
262,798.2051391601562,792.1611938476562,805.054931640625,803.4432373046875
263,792.967041015625,792.5640869140625,800.6226806640625,791.3552856445312
264,786.1171875,792.1611938476562,796.1904907226562,794.981689453125
265,789.7435913085938,792.967041015625,799.4139404296875,798.2051391601562
266,794.981689453125,795.7875366210938,801.025634765625,800.2197875976562
267,796.5933837890625,796.996337890625,798.6080322265625,803.040283203125
268,797.3992919921875,796.1904907226562,801.8314819335938,799.4139404296875
269,793.3699340820312,792.1611938476562,801.8314819335938,797.3992919921875
270,784.1025390625,788.1318969726562,793.7728881835938,798.2051391601562
271,789.3406372070312,788.937744140625,791.3552856445312,799.010986328125
272,798.6080322265625,792.1611938476562,794.1758422851562,805.8607788085938
273,793.7728881835938,794.1758422851562,796.996337890625,803.4432373046875
274,790.952392578125,791.7582397460938,797.3992919921875,796.996337890625
275,793.7728881835938,794.5787353515625,796.996337890625,794.1758422851562
276,793.7728881835938,794.1758422851562,799.010986328125,792.967041015625
277,797.3992919921875,790.5494384765625,797.3992919921875,793.7728881835938
278,799.4139404296875,792.5640869140625,796.996337890625,794.1758422851562
279,801.025634765625,793.7728881835938,800.2197875976562,795.7875366210938
280,802.2344360351562,791.3552856445312,802.6373901367188,796.1904907226562
281,800.6226806640625,793.3699340820312,800.2197875976562,794.981689453125
282,800.6226806640625,796.996337890625,799.4139404296875,799.010986328125
283,799.010986328125,792.967041015625,804.2490844726562,801.025634765625
284,797.8021850585938,790.5494384765625,804.6520385742188,803.8461303710938
285,796.1904907226562,794.5787353515625,805.054931640625,804.2490844726562
286,794.981689453125,795.3846435546875,806.6666870117188,803.4432373046875
287,794.5787353515625,792.1611938476562,807.87548828125,806.6666870117188
288,793.3699340820312,790.5494384765625,806.2637329101562,805.4578857421875
289,791.3552856445312,791.3552856445312,807.4725341796875,805.054931640625
290,791.7582397460938,788.5347900390625,803.4432373046875,802.6373901367188
291,792.5640869140625,786.5201416015625,801.025634765625,802.6373901367188
292,792.5640869140625,790.5494384765625,801.025634765625,803.8461303710938
293,794.5787353515625,791.3552856445312,800.6226806640625,802.2344360351562
294,794.5787353515625,788.1318969726562,800.6226806640625,798.2051391601562
295,792.1611938476562,786.5201416015625,795.3846435546875,798.6080322265625
296,787.3259887695312,789.3406372070312,794.5787353515625,800.6226806640625
297,789.3406372070312,789.7435913085938,798.6080322265625,801.025634765625
298,797.3992919921875,792.1611938476562,800.6226806640625,803.8461303710938
299,800.2197875976562,793.3699340820312,799.010986328125,802.6373901367188
300,798.6080322265625,790.1465454101562,795.7875366210938,801.8314819335938
301,790.952392578125,787.7289428710938,791.3552856445312,796.996337890625
302,790.952392578125,789.3406372070312,793.3699340820312,792.1611938476562
303,797.8021850585938,790.5494384765625,796.5933837890625,794.5787353515625
304,797.3992919921875,796.1904907226562,798.6080322265625,795.3846435546875
305,796.1904907226562,799.010986328125,800.2197875976562,798.6080322265625
306,797.3992919921875,792.967041015625,799.8168334960938,797.3992919921875
307,800.2197875976562,796.996337890625,799.4139404296875,796.996337890625
308,802.2344360351562,801.4285888671875,799.010986328125,799.010986328125
309,799.8168334960938,799.4139404296875,800.6226806640625,798.2051391601562
310,800.6226806640625,796.5933837890625,801.4285888671875,801.4285888671875
311,803.040283203125,797.3992919921875,796.5933837890625,801.025634765625
312,802.6373901367188,796.996337890625,797.3992919921875,795.3846435546875
313,803.8461303710938,795.3846435546875,798.2051391601562,798.6080322265625
314,807.069580078125,791.7582397460938,795.7875366210938,811.90478515625
315,798.2051391601562,789.3406372070312,799.4139404296875,812.7106323242188
316,796.5933837890625,788.5347900390625,799.4139404296875,802.2344360351562
317,801.025634765625,785.7142944335938,796.5933837890625,799.8168334960938
318,798.2051391601562,780.4761962890625,795.7875366210938,803.040283203125
319,794.981689453125,782.087890625,795.7875366210938,802.2344360351562
320,794.1758422851562,784.5054931640625,793.7728881835938,799.4139404296875
321,796.996337890625,786.1171875,793.7728881835938,800.6226806640625
322,796.996337890625,787.3259887695312,792.967041015625,795.7875366210938
323,796.5933837890625,789.7435913085938,792.967041015625,788.937744140625
324,791.7582397460938,791.7582397460938,794.981689453125,786.5201416015625
325,795.3846435546875,788.937744140625,796.996337890625,794.1758422851562
326,801.4285888671875,786.923095703125,797.8021850585938,803.4432373046875
327,799.010986328125,788.1318969726562,795.3846435546875,798.2051391601562
328,799.4139404296875,786.923095703125,794.981689453125,792.967041015625
329,806.6666870117188,786.923095703125,797.8021850585938,797.3992919921875
330,803.4432373046875,788.5347900390625,799.010986328125,796.996337890625
331,794.981689453125,791.7582397460938,799.8168334960938,790.952392578125
332,798.6080322265625,794.5787353515625,801.025634765625,794.5787353515625
333,805.4578857421875,794.1758422851562,800.6226806640625,805.4578857421875
334,811.5018310546875,792.967041015625,796.1904907226562,811.90478515625
335,809.89013671875,793.3699340820312,793.7728881835938,803.040283203125
336,799.010986328125,792.1611938476562,794.5787353515625,794.981689453125
337,797.8021850585938,791.7582397460938,794.1758422851562,792.5640869140625
338,802.2344360351562,797.3992919921875,794.981689453125,788.1318969726562
339,799.010986328125,799.8168334960938,797.8021850585938,787.7289428710938
340,797.3992919921875,794.981689453125,796.996337890625,791.7582397460938
341,797.3992919921875,792.1611938476562,798.2051391601562,794.981689453125
342,795.7875366210938,795.7875366210938,796.996337890625,795.3846435546875
343,799.8168334960938,796.1904907226562,795.7875366210938,791.3552856445312
344,804.2490844726562,792.967041015625,795.3846435546875,787.7289428710938
345,799.010986328125,791.3552856445312,791.7582397460938,794.5787353515625
346,788.1318969726562,793.3699340820312,794.1758422851562,793.3699340820312
347,791.3552856445312,792.967041015625,798.6080322265625,799.4139404296875
348,803.4432373046875,794.981689453125,797.8021850585938,809.89013671875
349,805.4578857421875,799.010986328125,801.025634765625,809.084228515625
350,801.025634765625,793.3699340820312,801.8314819335938,803.8461303710938
351,798.6080322265625,790.1465454101562,803.8461303710938,799.8168334960938
352,797.3992919921875,794.5787353515625,802.6373901367188,802.6373901367188
353,797.3992919921875,792.967041015625,796.5933837890625,803.4432373046875
354,800.6226806640625,791.7582397460938,795.3846435546875,798.6080322265625
355,800.2197875976562,798.2051391601562,797.3992919921875,794.5787353515625
356,792.967041015625,796.5933837890625,798.6080322265625,798.2051391601562
357,790.5494384765625,794.981689453125,796.5933837890625,807.069580078125
358,797.3992919921875,799.010986328125,797.3992919921875,803.4432373046875
359,796.5933837890625,796.5933837890625,795.3846435546875,793.7728881835938
360,799.8168334960938,794.981689453125,795.3846435546875,798.2051391601562
361,796.1904907226562,799.8168334960938,796.5933837890625,796.996337890625
362,794.1758422851562,800.6226806640625,798.2051391601562,797.3992919921875
363,802.2344360351562,802.6373901367188,804.6520385742188,809.89013671875
364,802.6373901367188,802.6373901367188,802.2344360351562,811.5018310546875
365,803.040283203125,799.4139404296875,801.4285888671875,806.6666870117188
366,801.8314819335938,796.996337890625,803.040283203125,809.084228515625
367,800.2197875976562,798.2051391601562,803.040283203125,811.90478515625
368,802.2344360351562,799.010986328125,800.6226806640625,816.7399291992188
369,798.6080322265625,799.4139404296875,801.025634765625,812.7106323242188
370,793.3699340820312,799.010986328125,806.2637329101562,801.8314819335938
371,791.7582397460938,793.3699340820312,807.4725341796875,801.8314819335938
372,791.3552856445312,792.1611938476562,805.054931640625,801.025634765625
373,792.1611938476562,796.1904907226562,807.4725341796875,793.7728881835938
374,793.3699340820312,795.3846435546875,807.87548828125,792.967041015625
375,797.3992919921875,791.7582397460938,806.2637329101562,799.010986328125
376,803.040283203125,792.1611938476562,805.054931640625,797.8021850585938
377,801.8314819335938,795.3846435546875,799.4139404296875,790.5494384765625
378,797.3992919921875,794.5787353515625,797.8021850585938,791.7582397460938
379,798.6080322265625,794.5787353515625,798.2051391601562,797.3992919921875
380,796.5933837890625,796.5933837890625,796.1904907226562,796.996337890625
381,796.5933837890625,795.3846435546875,795.3846435546875,795.3846435546875
382,796.1904907226562,794.5787353515625,796.996337890625,791.3552856445312
383,793.7728881835938,793.3699340820312,796.5933837890625,792.967041015625
384,795.3846435546875,790.952392578125,795.3846435546875,792.5640869140625
385,794.5787353515625,796.5933837890625,795.7875366210938,790.5494384765625
386,791.3552856445312,797.8021850585938,793.3699340820312,794.981689453125
387,788.937744140625,794.981689453125,792.5640869140625,796.1904907226562
388,791.7582397460938,794.1758422851562,791.3552856445312,795.7875366210938
389,794.1758422851562,796.996337890625,794.5787353515625,798.6080322265625
390,795.7875366210938,796.5933837890625,799.8168334960938,796.996337890625
391,798.6080322265625,795.3846435546875,796.996337890625,803.040283203125
392,797.3992919921875,796.5933837890625,803.4432373046875,801.8314819335938
393,794.1758422851562,794.5787353515625,804.2490844726562,794.5787353515625
394,788.937744140625,790.1465454101562,795.3846435546875,801.8314819335938
395,786.5201416015625,790.952392578125,790.952392578125,800.6226806640625
396,786.1171875,794.5787353515625,790.5494384765625,794.981689453125
397,787.3259887695312,795.3846435546875,792.967041015625,790.5494384765625
398,792.967041015625,796.996337890625,792.1611938476562,789.7435913085938
399,792.1611938476562,796.996337890625,792.967041015625,791.3552856445312
400,790.1465454101562,798.2051391601562,793.7728881835938,790.1465454101562
401,793.7728881835938,799.4139404296875,794.1758422851562,793.3699340820312
402,794.981689453125,796.996337890625,795.7875366210938,801.4285888671875
403,792.5640869140625,796.5933837890625,793.3699340820312,807.069580078125
404,794.1758422851562,798.6080322265625,793.3699340820312,796.996337890625
405,797.3992919921875,797.3992919921875,792.5640869140625,792.967041015625
406,791.7582397460938,796.5933837890625,791.7582397460938,796.1904907226562
407,788.1318969726562,796.5933837890625,797.8021850585938,798.6080322265625
408,789.7435913085938,795.7875366210938,795.7875366210938,797.8021850585938
409,786.5201416015625,790.952392578125,788.5347900390625,795.7875366210938
410,787.7289428710938,790.1465454101562,794.5787353515625,796.5933837890625
411,800.2197875976562,799.010986328125,799.4139404296875,798.2051391601562
412,803.4432373046875,796.1904907226562,799.010986328125,797.3992919921875
413,800.2197875976562,792.967041015625,800.2197875976562,803.4432373046875
414,794.981689453125,792.967041015625,798.6080322265625,809.084228515625
415,794.981689453125,795.7875366210938,795.7875366210938,803.8461303710938
416,795.7875366210938,796.996337890625,796.1904907226562,802.2344360351562
417,789.7435913085938,791.3552856445312,796.996337890625,799.4139404296875
418,788.5347900390625,791.7582397460938,794.981689453125,798.2051391601562
419,794.1758422851562,793.3699340820312,796.1904907226562,800.2197875976562
420,797.8021850585938,793.7728881835938,801.4285888671875,796.996337890625
421,802.6373901367188,795.3846435546875,799.4139404296875,801.8314819335938
422,806.2637329101562,793.3699340820312,796.5933837890625,805.4578857421875
423,799.010986328125,792.1611938476562,799.010986328125,800.2197875976562
424,796.1904907226562,796.1904907226562,797.3992919921875,799.4139404296875
425,799.4139404296875,792.967041015625,796.996337890625,801.4285888671875
426,800.6226806640625,793.3699340820312,801.8314819335938,803.4432373046875
427,801.4285888671875,800.6226806640625,805.8607788085938,805.4578857421875
428,801.8314819335938,797.8021850585938,804.2490844726562,803.4432373046875
429,800.6226806640625,793.7728881835938,802.2344360351562,806.2637329101562
430,801.4285888671875,795.3846435546875,798.2051391601562,809.89013671875
431,801.4285888671875,794.5787353515625,799.4139404296875,798.2051391601562
432,798.2051391601562,792.967041015625,800.2197875976562,793.7728881835938
433,794.5787353515625,788.937744140625,794.5787353515625,796.5933837890625
434,795.7875366210938,788.5347900390625,798.2051391601562,796.996337890625
435,799.8168334960938,794.5787353515625,803.8461303710938,799.8168334960938
436,800.6226806640625,792.1611938476562,801.4285888671875,798.6080322265625
437,797.3992919921875,788.1318969726562,799.8168334960938,797.3992919921875
438,792.5640869140625,791.3552856445312,803.4432373046875,798.6080322265625
439,790.952392578125,790.952392578125,797.3992919921875,796.1904907226562
440,796.1904907226562,790.5494384765625,790.5494384765625,799.8168334960938
441,794.981689453125,794.1758422851562,795.3846435546875,815.93408203125
442,788.937744140625,794.5787353515625,802.2344360351562,810.6959838867188
443,791.7582397460938,792.5640869140625,806.2637329101562,799.4139404296875
444,791.3552856445312,790.1465454101562,804.2490844726562,796.1904907226562
445,790.5494384765625,788.5347900390625,802.6373901367188,794.1758422851562
446,802.2344360351562,788.937744140625,803.040283203125,798.6080322265625
447,799.8168334960938,790.952392578125,802.2344360351562,791.7582397460938
448,792.967041015625,791.7582397460938,797.3992919921875,791.7582397460938
449,794.1758422851562,790.952392578125,798.2051391601562,796.1904907226562
450,794.5787353515625,791.3552856445312,803.040283203125,793.7728881835938
451,801.025634765625,794.5787353515625,801.4285888671875,795.7875366210938
452,800.6226806640625,795.7875366210938,795.3846435546875,799.8168334960938
453,796.1904907226562,793.7728881835938,794.981689453125,807.4725341796875
454,795.3846435546875,794.981689453125,800.6226806640625,799.4139404296875
455,798.2051391601562,792.1611938476562,802.2344360351562,792.1611938476562
456,794.5787353515625,793.3699340820312,799.010986328125,789.7435913085938
457,790.5494384765625,793.7728881835938,797.8021850585938,785.3113403320312
458,796.996337890625,789.7435913085938,799.010986328125,784.5054931640625
459,800.6226806640625,791.3552856445312,799.010986328125,785.3113403320312
460,799.010986328125,790.1465454101562,795.7875366210938,790.1465454101562
461,801.025634765625,790.1465454101562,795.3846435546875,792.1611938476562
462,801.8314819335938,794.1758422851562,796.5933837890625,790.1465454101562
463,799.8168334960938,791.7582397460938,792.1611938476562,789.3406372070312
464,797.3992919921875,792.5640869140625,788.5347900390625,786.1171875
465,796.1904907226562,796.996337890625,787.7289428710938,784.5054931640625
466,794.981689453125,796.5933837890625,793.3699340820312,793.3699340820312
467,789.3406372070312,797.8021850585938,796.1904907226562,798.6080322265625
468,788.5347900390625,800.6226806640625,795.3846435546875,795.7875366210938
469,792.967041015625,797.3992919921875,792.5640869140625,793.7728881835938
470,796.5933837890625,794.1758422851562,792.967041015625,791.3552856445312
471,795.7875366210938,794.5787353515625,794.5787353515625,789.3406372070312
472,799.4139404296875,790.1465454101562,794.981689453125,803.4432373046875
473,800.6226806640625,793.7728881835938,799.8168334960938,805.4578857421875
474,795.3846435546875,795.7875366210938,801.4285888671875,790.5494384765625
475,789.3406372070312,790.952392578125,796.1904907226562,788.1318969726562
476,791.3552856445312,788.937744140625,792.1611938476562,795.7875366210938
477,790.952392578125,790.1465454101562,794.981689453125,788.937744140625
478,790.952392578125,792.967041015625,795.7875366210938,792.5640869140625
479,790.5494384765625,788.937744140625,793.3699340820312,802.2344360351562
480,795.7875366210938,788.937744140625,794.5787353515625,802.6373901367188
481,794.981689453125,790.5494384765625,795.7875366210938,793.3699340820312
482,793.3699340820312,786.5201416015625,794.1758422851562,787.7289428710938
483,792.5640869140625,786.1171875,796.5933837890625,792.967041015625
484,790.5494384765625,789.3406372070312,796.996337890625,795.3846435546875
485,793.3699340820312,790.5494384765625,798.2051391601562,796.1904907226562
486,791.7582397460938,791.7582397460938,801.4285888671875,796.1904907226562
487,792.5640869140625,792.5640869140625,798.2051391601562,796.5933837890625
488,795.3846435546875,796.5933837890625,796.1904907226562,795.3846435546875
489,797.3992919921875,796.996337890625,794.981689453125,798.2051391601562
490,799.4139404296875,795.3846435546875,794.1758422851562,799.4139404296875
491,797.8021850585938,795.7875366210938,797.8021850585938,802.2344360351562
492,794.981689453125,792.967041015625,799.8168334960938,804.6520385742188
493,795.7875366210938,792.5640869140625,798.6080322265625,803.040283203125
494,804.2490844726562,792.967041015625,797.3992919921875,807.4725341796875
495,804.2490844726562,791.7582397460938,799.010986328125,814.3223266601562
496,797.3992919921875,794.981689453125,798.2051391601562,805.8607788085938
497,799.4139404296875,796.1904907226562,797.8021850585938,796.996337890625
498,803.040283203125,792.967041015625,797.3992919921875,800.6226806640625
499,802.2344360351562,790.952392578125,796.996337890625,800.2197875976562
500,797.3992919921875,794.981689453125,800.6226806640625,789.3406372070312
501,791.3552856445312,793.7728881835938,798.2051391601562,783.2966918945312
502,792.5640869140625,792.5640869140625,796.996337890625,786.1171875
503,796.5933837890625,793.7728881835938,797.3992919921875,790.1465454101562
504,794.1758422851562,791.3552856445312,793.3699340820312,791.3552856445312
505,790.952392578125,790.5494384765625,792.967041015625,795.7875366210938
506,789.3406372070312,787.3259887695312,793.7728881835938,799.010986328125
507,788.1318969726562,789.3406372070312,796.996337890625,798.2051391601562
508,791.3552856445312,793.3699340820312,801.4285888671875,800.6226806640625
509,800.2197875976562,790.952392578125,800.2197875976562,804.2490844726562
510,801.4285888671875,791.7582397460938,797.3992919921875,807.4725341796875
511,794.5787353515625,795.3846435546875,796.1904907226562,804.6520385742188
512,795.3846435546875,796.1904907226562,796.1904907226562,800.6226806640625
513,798.6080322265625,795.3846435546875,798.2051391601562,801.4285888671875
514,803.4432373046875,797.3992919921875,799.4139404296875,805.054931640625
515,804.2490844726562,797.8021850585938,801.4285888671875,807.4725341796875
516,796.1904907226562,792.1611938476562,802.2344360351562,804.2490844726562
517,797.8021850585938,789.7435913085938,800.6226806640625,801.4285888671875
518,809.4871826171875,792.1611938476562,802.2344360351562,803.4432373046875
519,809.89013671875,793.7728881835938,804.2490844726562,802.6373901367188
520,797.8021850585938,790.5494384765625,803.4432373046875,798.6080322265625
521,794.981689453125,791.3552856445312,803.040283203125,807.4725341796875
522,798.6080322265625,789.7435913085938,803.8461303710938,815.1282348632812
523,797.3992919921875,785.3113403320312,804.2490844726562,803.040283203125
524,800.2197875976562,792.1611938476562,809.89013671875,803.8461303710938
525,805.4578857421875,795.3846435546875,812.7106323242188,815.1282348632812
526,799.8168334960938,788.5347900390625,807.4725341796875,813.91943359375
527,795.3846435546875,784.908447265625,801.4285888671875,811.098876953125
528,802.6373901367188,787.7289428710938,799.8168334960938,813.5164794921875
529,803.4432373046875,786.5201416015625,805.4578857421875,806.6666870117188
530,798.6080322265625,782.893798828125,804.2490844726562,802.2344360351562
531,793.3699340820312,782.4908447265625,801.8314819335938,800.6226806640625
532,793.3699340820312,785.7142944335938,797.3992919921875,802.2344360351562
533,796.996337890625,786.5201416015625,794.981689453125,802.2344360351562
534,790.952392578125,789.7435913085938,801.8314819335938,799.010986328125
535,783.2966918945312,791.7582397460938,802.2344360351562,798.6080322265625
536,785.3113403320312,792.5640869140625,800.2197875976562,795.7875366210938
537,787.3259887695312,793.3699340820312,799.8168334960938,799.010986328125
538,789.7435913085938,793.3699340820312,802.6373901367188,802.2344360351562
539,794.1758422851562,792.1611938476562,801.4285888671875,803.8461303710938
540,794.981689453125,793.7728881835938,796.1904907226562,802.2344360351562
541,796.1904907226562,794.1758422851562,794.1758422851562,798.6080322265625
542,792.1611938476562,793.3699340820312,794.5787353515625,794.5787353515625
543,790.5494384765625,792.1611938476562,797.8021850585938,794.5787353515625
544,794.1758422851562,796.5933837890625,799.4139404296875,796.5933837890625
545,797.3992919921875,804.2490844726562,802.6373901367188,800.6226806640625
546,792.967041015625,801.025634765625,803.040283203125,798.6080322265625
547,791.7582397460938,800.2197875976562,800.2197875976562,790.1465454101562
548,796.996337890625,800.6226806640625,799.010986328125,799.010986328125
549,800.6226806640625,797.3992919921875,801.4285888671875,808.6813354492188
550,798.6080322265625,796.5933837890625,802.6373901367188,801.4285888671875
551,793.3699340820312,792.5640869140625,801.8314819335938,796.5933837890625
552,794.5787353515625,790.1465454101562,805.054931640625,799.8168334960938
553,791.7582397460938,790.5494384765625,803.8461303710938,801.4285888671875
554,787.7289428710938,789.3406372070312,797.8021850585938,794.5787353515625
555,786.5201416015625,790.952392578125,798.6080322265625,789.3406372070312
556,784.908447265625,793.3699340820312,797.3992919921875,791.3552856445312
557,790.952392578125,790.5494384765625,794.981689453125,791.3552856445312
558,791.3552856445312,792.1611938476562,801.025634765625,790.952392578125
559,790.1465454101562,793.3699340820312,803.4432373046875,795.7875366210938
560,793.7728881835938,789.3406372070312,800.2197875976562,809.89013671875
561,790.1465454101562,788.1318969726562,802.6373901367188,808.6813354492188
562,787.3259887695312,789.3406372070312,805.4578857421875,792.967041015625
563,790.1465454101562,790.1465454101562,802.2344360351562,793.3699340820312
564,794.1758422851562,788.937744140625,799.010986328125,797.8021850585938
565,799.8168334960938,793.3699340820312,802.2344360351562,799.010986328125
566,797.3992919921875,796.1904907226562,801.8314819335938,796.996337890625
567,795.3846435546875,792.967041015625,797.8021850585938,799.4139404296875
568,795.3846435546875,791.7582397460938,796.1904907226562,803.040283203125
569,798.2051391601562,794.981689453125,798.6080322265625,805.8607788085938
570,801.8314819335938,795.3846435546875,801.8314819335938,805.4578857421875
571,802.2344360351562,792.1611938476562,801.4285888671875,813.5164794921875
572,794.1758422851562,788.1318969726562,797.8021850585938,815.93408203125
573,786.923095703125,787.7289428710938,799.4139404296875,800.2197875976562
574,788.937744140625,787.7289428710938,798.2051391601562,797.3992919921875
575,792.1611938476562,786.923095703125,792.967041015625,797.8021850585938
576,787.3259887695312,788.937744140625,797.3992919921875,791.7582397460938
577,787.3259887695312,790.1465454101562,803.4432373046875,793.3699340820312
578,792.5640869140625,786.5201416015625,799.4139404296875,793.3699340820312
579,792.5640869140625,787.3259887695312,794.981689453125,788.1318969726562
580,794.1758422851562,790.5494384765625,794.5787353515625,791.3552856445312
581,791.7582397460938,792.1611938476562,792.1611938476562,793.7728881835938
582,786.1171875,786.923095703125,795.7875366210938,794.1758422851562
583,790.1465454101562,788.1318969726562,797.8021850585938,799.010986328125
584,788.1318969726562,793.3699340820312,798.2051391601562,794.5787353515625
585,790.5494384765625,794.1758422851562,801.025634765625,789.7435913085938
586,797.8021850585938,794.5787353515625,797.3992919921875,791.7582397460938
587,797.8021850585938,798.2051391601562,794.981689453125,792.967041015625
588,795.3846435546875,801.025634765625,798.2051391601562,786.5201416015625
589,799.010986328125,801.8314819335938,796.5933837890625,785.7142944335938
590,801.8314819335938,798.6080322265625,796.996337890625,791.7582397460938
591,796.1904907226562,793.7728881835938,796.5933837890625,790.1465454101562
592,798.2051391601562,795.3846435546875,796.1904907226562,786.5201416015625
593,805.4578857421875,801.8314819335938,801.4285888671875,789.3406372070312
594,805.054931640625,801.025634765625,801.4285888671875,796.996337890625
595,801.025634765625,794.5787353515625,796.1904907226562,801.4285888671875
596,797.8021850585938,793.3699340820312,792.5640869140625,792.967041015625
597,798.2051391601562,798.2051391601562,794.981689453125,798.2051391601562
598,797.8021850585938,796.996337890625,797.3992919921875,798.2051391601562
599,797.8021850585938,792.967041015625,796.5933837890625,788.937744140625
600,804.2490844726562,793.3699340820312,793.3699340820312,791.3552856445312
601,805.4578857421875,795.3846435546875,792.1611938476562,793.7728881835938
602,801.8314819335938,797.8021850585938,794.1758422851562,793.3699340820312
603,800.2197875976562,796.5933837890625,794.1758422851562,787.3259887695312
604,798.6080322265625,794.981689453125,790.952392578125,785.3113403320312
605,803.8461303710938,795.3846435546875,792.1611938476562,795.7875366210938
606,802.2344360351562,796.5933837890625,790.1465454101562,799.010986328125
607,798.6080322265625,796.996337890625,789.3406372070312,792.967041015625
608,798.6080322265625,797.8021850585938,794.1758422851562,791.7582397460938
609,798.2051391601562,799.010986328125,794.981689453125,797.8021850585938
610,799.010986328125,795.3846435546875,792.967041015625,800.2197875976562
611,800.6226806640625,800.2197875976562,797.3992919921875,796.996337890625
612,795.3846435546875,802.2344360351562,801.4285888671875,793.7728881835938
613,792.1611938476562,792.967041015625,798.6080322265625,793.7728881835938
614,795.7875366210938,794.5787353515625,797.8021850585938,792.5640869140625
615,802.6373901367188,803.4432373046875,798.6080322265625,792.5640869140625
616,803.4432373046875,800.2197875976562,797.8021850585938,795.3846435546875
617,797.3992919921875,796.5933837890625,794.981689453125,796.5933837890625
618,796.5933837890625,792.1611938476562,793.3699340820312,794.1758422851562
619,801.025634765625,789.3406372070312,796.5933837890625,793.3699340820312
620,799.8168334960938,794.5787353515625,802.2344360351562,799.010986328125
621,795.3846435546875,790.952392578125,796.996337890625,801.4285888671875
622,796.1904907226562,792.1611938476562,794.5787353515625,799.010986328125
623,795.7875366210938,799.4139404296875,799.010986328125,792.5640869140625
624,794.5787353515625,794.1758422851562,795.3846435546875,791.3552856445312
625,794.981689453125,791.7582397460938,795.3846435546875,791.7582397460938
626,794.5787353515625,791.7582397460938,796.5933837890625,798.2051391601562
627,794.1758422851562,790.5494384765625,795.3846435546875,800.6226806640625
628,795.3846435546875,792.1611938476562,799.8168334960938,800.6226806640625
629,797.8021850585938,792.1611938476562,801.8314819335938,802.6373901367188
630,796.1904907226562,794.5787353515625,800.2197875976562,799.010986328125
631,797.3992919921875,792.1611938476562,800.6226806640625,794.5787353515625
632,800.6226806640625,792.1611938476562,801.025634765625,794.981689453125
633,799.8168334960938,793.7728881835938,796.1904907226562,805.054931640625
634,793.3699340820312,794.981689453125,799.4139404296875,802.6373901367188
635,795.3846435546875,795.7875366210938,804.2490844726562,799.4139404296875
636,799.010986328125,794.981689453125,801.025634765625,801.8314819335938
637,799.4139404296875,792.5640869140625,802.2344360351562,799.8168334960938
638,801.8314819335938,792.5640869140625,807.4725341796875,798.6080322265625
639,799.4139404296875,792.967041015625,804.6520385742188,802.2344360351562
640,802.2344360351562,790.5494384765625,801.8314819335938,807.069580078125
641,803.8461303710938,785.7142944335938,801.025634765625,808.2783813476562
642,803.4432373046875,784.908447265625,800.2197875976562,806.6666870117188
643,804.2490844726562,789.7435913085938,800.2197875976562,800.2197875976562
644,803.040283203125,788.937744140625,798.2051391601562,800.2197875976562
645,799.010986328125,790.5494384765625,799.010986328125,803.040283203125
646,794.5787353515625,790.952392578125,801.8314819335938,798.6080322265625
647,796.996337890625,792.1611938476562,798.6080322265625,802.2344360351562
648,795.3846435546875,791.7582397460938,798.6080322265625,804.2490844726562
649,792.967041015625,792.967041015625,802.6373901367188,792.967041015625
650,794.5787353515625,792.1611938476562,801.8314819335938,788.1318969726562
651,795.3846435546875,790.952392578125,799.4139404296875,795.3846435546875
652,796.1904907226562,789.7435913085938,802.6373901367188,799.010986328125
653,794.981689453125,786.5201416015625,799.010986328125,799.4139404296875
654,801.4285888671875,786.923095703125,798.6080322265625,798.6080322265625
655,804.6520385742188,792.967041015625,801.8314819335938,802.2344360351562
656,796.1904907226562,791.3552856445312,797.8021850585938,805.4578857421875
657,792.967041015625,789.3406372070312,798.2051391601562,796.1904907226562
658,790.952392578125,788.937744140625,799.4139404296875,794.5787353515625
659,789.3406372070312,787.3259887695312,798.6080322265625,799.4139404296875
660,792.1611938476562,788.1318969726562,800.2197875976562,799.4139404296875
661,788.1318969726562,787.7289428710938,794.1758422851562,800.2197875976562
662,788.937744140625,788.1318969726562,791.3552856445312,804.2490844726562
663,792.1611938476562,784.908447265625,793.7728881835938,800.6226806640625
664,786.923095703125,788.1318969726562,797.8021850585938,792.967041015625
665,784.908447265625,790.1465454101562,803.040283203125,792.5640869140625
666,788.1318969726562,786.5201416015625,803.4432373046875,801.025634765625
667,790.952392578125,788.937744140625,799.4139404296875,805.8607788085938
668,791.3552856445312,791.3552856445312,799.010986328125,806.6666870117188
669,792.1611938476562,794.1758422851562,805.8607788085938,802.6373901367188
670,788.5347900390625,796.1904907226562,803.4432373046875,798.6080322265625
671,791.7582397460938,795.3846435546875,798.2051391601562,798.2051391601562
672,795.7875366210938,790.952392578125,796.996337890625,792.967041015625
673,792.5640869140625,790.5494384765625,796.1904907226562,785.7142944335938
674,797.8021850585938,792.967041015625,795.7875366210938,789.7435913085938
675,800.2197875976562,788.1318969726562,795.3846435546875,790.1465454101562
676,796.1904907226562,790.5494384765625,795.7875366210938,786.5201416015625
677,799.010986328125,792.967041015625,800.6226806640625,792.1611938476562
678,802.6373901367188,791.7582397460938,803.4432373046875,795.3846435546875
679,800.6226806640625,792.5640869140625,796.996337890625,788.1318969726562
680,794.981689453125,793.3699340820312,791.7582397460938,778.8644409179688
681,796.1904907226562,793.7728881835938,790.952392578125,782.087890625
682,795.7875366210938,796.1904907226562,791.7582397460938,790.5494384765625
683,788.5347900390625,797.3992919921875,790.5494384765625,792.1611938476562
684,788.5347900390625,790.952392578125,794.981689453125,793.3699340820312
685,789.7435913085938,788.937744140625,799.010986328125,792.967041015625
686,791.7582397460938,790.952392578125,797.3992919921875,793.3699340820312
687,791.7582397460938,792.1611938476562,796.5933837890625,797.8021850585938
688,786.5201416015625,789.3406372070312,794.5787353515625,794.981689453125
689,787.7289428710938,788.937744140625,796.1904907226562,792.5640869140625
690,788.5347900390625,792.1611938476562,796.5933837890625,796.5933837890625
691,791.3552856445312,792.1611938476562,798.6080322265625,805.8607788085938
692,790.1465454101562,790.952392578125,796.996337890625,797.8021850585938
693,790.5494384765625,793.3699340820312,797.3992919921875,796.996337890625
694,794.1758422851562,792.5640869140625,805.054931640625,801.4285888671875
695,790.1465454101562,790.5494384765625,801.025634765625,795.3846435546875
696,793.3699340820312,794.1758422851562,795.7875366210938,797.8021850585938
697,799.010986328125,790.952392578125,796.1904907226562,798.2051391601562
698,799.010986328125,788.1318969726562,796.996337890625,798.6080322265625
699,794.981689453125,791.3552856445312,798.6080322265625,800.2197875976562
700,790.952392578125,792.967041015625,799.8168334960938,796.1904907226562
701,796.996337890625,792.1611938476562,802.2344360351562,794.5787353515625
702,796.996337890625,793.7728881835938,800.2197875976562,802.2344360351562
703,788.5347900390625,793.7728881835938,800.6226806640625,803.040283203125
704,786.1171875,790.5494384765625,801.4285888671875,795.3846435546875
705,790.5494384765625,787.3259887695312,802.2344360351562,794.981689453125
706,795.3846435546875,786.923095703125,801.4285888671875,806.2637329101562
707,796.1904907226562,793.3699340820312,800.6226806640625,803.4432373046875
708,796.5933837890625,794.1758422851562,800.2197875976562,794.1758422851562
709,800.6226806640625,796.1904907226562,799.010986328125,795.7875366210938
710,796.5933837890625,796.5933837890625,802.6373901367188,795.7875366210938
711,791.7582397460938,791.3552856445312,798.6080322265625,795.7875366210938
712,790.952392578125,790.1465454101562,794.5787353515625,796.996337890625
713,794.1758422851562,790.1465454101562,800.2197875976562,805.4578857421875
714,796.5933837890625,792.1611938476562,800.6226806640625,801.4285888671875
715,794.1758422851562,794.1758422851562,795.7875366210938,787.3259887695312
716,796.996337890625,793.7728881835938,796.996337890625,789.7435913085938
717,798.6080322265625,792.967041015625,799.010986328125,791.7582397460938
718,797.3992919921875,795.3846435546875,795.3846435546875,789.3406372070312
719,793.7728881835938,794.981689453125,792.967041015625,788.937744140625
720,786.923095703125,789.3406372070312,794.981689453125,790.1465454101562
721,789.3406372070312,790.1465454101562,797.8021850585938,797.8021850585938
722,789.3406372070312,791.7582397460938,798.2051391601562,800.2197875976562
723,788.937744140625,791.3552856445312,799.4139404296875,797.3992919921875
724,790.5494384765625,792.5640869140625,797.8021850585938,803.040283203125
725,783.2966918945312,792.1611938476562,790.5494384765625,803.4432373046875
726,782.893798828125,789.7435913085938,789.3406372070312,800.6226806640625
727,788.5347900390625,790.1465454101562,793.7728881835938,796.1904907226562
728,790.952392578125,787.7289428710938,792.5640869140625,794.1758422851562
729,794.981689453125,786.923095703125,792.1611938476562,801.8314819335938
730,797.3992919921875,794.1758422851562,796.5933837890625,799.4139404296875
731,798.2051391601562,793.7728881835938,801.025634765625,797.3992919921875
732,801.025634765625,791.3552856445312,800.2197875976562,801.4285888671875
733,799.4139404296875,790.1465454101562,797.3992919921875,805.8607788085938
734,795.3846435546875,788.5347900390625,798.2051391601562,802.6373901367188
735,801.025634765625,788.1318969726562,800.6226806640625,792.5640869140625
736,802.2344360351562,788.937744140625,801.025634765625,798.6080322265625
737,797.3992919921875,790.5494384765625,801.4285888671875,809.084228515625
738,799.4139404296875,790.1465454101562,803.8461303710938,803.4432373046875
739,797.8021850585938,793.7728881835938,805.8607788085938,794.1758422851562
740,798.2051391601562,791.7582397460938,800.6226806640625,792.1611938476562
741,794.981689453125,787.3259887695312,799.010986328125,792.967041015625
742,790.952392578125,788.5347900390625,798.2051391601562,792.1611938476562
743,795.3846435546875,787.7289428710938,795.7875366210938,794.1758422851562
744,802.2344360351562,788.5347900390625,799.4139404296875,799.010986328125
745,804.6520385742188,792.1611938476562,805.4578857421875,796.996337890625
746,801.8314819335938,792.5640869140625,804.2490844726562,797.3992919921875
747,801.4285888671875,793.7728881835938,804.2490844726562,803.8461303710938
748,801.025634765625,793.7728881835938,804.6520385742188,808.2783813476562
749,802.2344360351562,795.7875366210938,802.2344360351562,808.6813354492188
750,803.040283203125,798.2051391601562,801.4285888671875,807.4725341796875
751,803.4432373046875,797.8021850585938,801.4285888671875,809.89013671875
752,808.2783813476562,793.7728881835938,798.2051391601562,811.098876953125
753,807.4725341796875,795.3846435546875,798.2051391601562,807.87548828125
754,804.6520385742188,797.3992919921875,802.6373901367188,809.084228515625
755,799.8168334960938,798.6080322265625,802.2344360351562,807.87548828125
756,796.1904907226562,799.010986328125,800.2197875976562,803.8461303710938
757,796.5933837890625,796.1904907226562,803.4432373046875,801.4285888671875
758,798.2051391601562,799.8168334960938,805.8607788085938,801.025634765625
759,796.996337890625,799.010986328125,807.069580078125,802.2344360351562
760,797.3992919921875,793.7728881835938,806.2637329101562,799.8168334960938
761,799.4139404296875,793.7728881835938,807.4725341796875,795.7875366210938
762,797.3992919921875,796.996337890625,806.2637329101562,796.1904907226562
763,796.996337890625,793.3699340820312,807.069580078125,801.8314819335938
764,795.7875366210938,790.952392578125,808.2783813476562,806.2637329101562
765,793.7728881835938,792.967041015625,809.4871826171875,796.5933837890625
766,794.981689453125,791.3552856445312,807.4725341796875,792.5640869140625
767,792.1611938476562,792.5640869140625,802.2344360351562,798.6080322265625
768,791.3552856445312,794.981689453125,806.2637329101562,800.6226806640625
769,794.981689453125,793.7728881835938,808.6813354492188,798.6080322265625
770,797.3992919921875,793.3699340820312,803.8461303710938,805.054931640625
771,790.1465454101562,793.3699340820312,797.8021850585938,812.3076782226562
772,791.7582397460938,798.2051391601562,798.6080322265625,803.4432373046875
773,797.8021850585938,799.4139404296875,801.4285888671875,795.7875366210938
774,798.6080322265625,793.7728881835938,799.4139404296875,800.2197875976562
775,801.4285888671875,794.5787353515625,796.5933837890625,807.87548828125
776,798.6080322265625,797.3992919921875,792.5640869140625,797.3992919921875
777,796.996337890625,799.8168334960938,792.967041015625,796.1904907226562
778,798.2051391601562,797.3992919921875,794.1758422851562,800.2197875976562
779,797.3992919921875,799.4139404296875,792.1611938476562,797.3992919921875
780,795.7875366210938,800.6226806640625,790.5494384765625,795.3846435546875
781,795.7875366210938,796.5933837890625,791.3552856445312,797.8021850585938
782,795.7875366210938,796.996337890625,792.967041015625,799.4139404296875
783,795.3846435546875,799.010986328125,796.5933837890625,796.996337890625
784,790.952392578125,795.7875366210938,796.5933837890625,795.3846435546875
785,790.952392578125,793.3699340820312,796.5933837890625,799.8168334960938
786,788.5347900390625,786.1171875,799.010986328125,806.2637329101562
787,786.923095703125,784.908447265625,799.4139404296875,807.4725341796875
788,789.3406372070312,794.5787353515625,805.054931640625,797.8021850585938
789,795.3846435546875,792.1611938476562,810.6959838867188,795.7875366210938
790,800.6226806640625,786.5201416015625,810.2930297851562,802.2344360351562
791,798.2051391601562,788.937744140625,809.4871826171875,806.6666870117188
792,793.7728881835938,793.3699340820312,807.87548828125,810.2930297851562
793,794.1758422851562,797.3992919921875,805.4578857421875,807.87548828125
794,799.010986328125,796.5933837890625,800.2197875976562,803.4432373046875
795,804.2490844726562,796.1904907226562,800.6226806640625,804.2490844726562
796,802.2344360351562,797.3992919921875,801.4285888671875,798.6080322265625
797,797.8021850585938,797.3992919921875,801.025634765625,797.3992919921875
798,802.2344360351562,799.010986328125,801.8314819335938,807.4725341796875
799,803.4432373046875,801.4285888671875,799.010986328125,803.040283203125
800,801.4285888671875,798.2051391601562,800.2197875976562,797.3992919921875
801,803.040283203125,795.3846435546875,800.2197875976562,799.8168334960938
802,803.4432373046875,796.5933837890625,798.2051391601562,801.8314819335938
803,796.5933837890625,795.7875366210938,799.010986328125,796.1904907226562
804,796.996337890625,794.1758422851562,800.2197875976562,790.1465454101562
805,794.1758422851562,794.981689453125,796.1904907226562,791.7582397460938
806,783.2966918945312,795.3846435546875,797.3992919921875,791.3552856445312
807,777.6557006835938,789.7435913085938,800.2197875976562,791.3552856445312
808,776.0439453125,781.6849975585938,798.2051391601562,794.5787353515625
809,778.8644409179688,782.087890625,799.8168334960938,799.010986328125
810,781.6849975585938,785.3113403320312,803.040283203125,805.8607788085938
811,785.3113403320312,785.7142944335938,805.8607788085938,805.4578857421875
812,790.952392578125,786.5201416015625,809.084228515625,801.025634765625
813,796.5933837890625,789.7435913085938,807.87548828125,810.6959838867188
814,803.4432373046875,795.3846435546875,808.6813354492188,814.7252807617188
815,807.4725341796875,793.7728881835938,809.89013671875,806.6666870117188
816,807.87548828125,791.3552856445312,804.6520385742188,809.084228515625
817,805.4578857421875,792.5640869140625,802.6373901367188,811.098876953125
818,804.2490844726562,794.1758422851562,805.054931640625,808.2783813476562
819,806.6666870117188,796.1904907226562,803.040283203125,805.054931640625
820,804.2490844726562,794.981689453125,799.010986328125,800.2197875976562
821,803.8461303710938,794.5787353515625,802.6373901367188,801.025634765625
822,799.8168334960938,796.5933837890625,803.4432373046875,794.1758422851562
823,792.1611938476562,796.5933837890625,801.4285888671875,785.3113403320312
824,796.996337890625,792.967041015625,798.2051391601562,787.7289428710938
825,799.4139404296875,792.967041015625,791.7582397460938,795.3846435546875
826,794.1758422851562,790.952392578125,790.1465454101562,789.7435913085938
827,792.5640869140625,790.1465454101562,796.996337890625,788.937744140625
828,787.7289428710938,791.7582397460938,800.2197875976562,790.5494384765625
829,790.1465454101562,792.967041015625,801.025634765625,793.7728881835938
830,792.1611938476562,794.981689453125,797.3992919921875,794.981689453125
831,787.7289428710938,791.3552856445312,794.1758422851562,789.3406372070312
832,791.3552856445312,789.3406372070312,796.5933837890625,794.981689453125
833,788.937744140625,788.937744140625,794.1758422851562,790.952392578125
834,779.6703491210938,785.3113403320312,791.3552856445312,785.3113403320312
835,778.05859375,784.5054931640625,792.967041015625,786.923095703125
836,790.5494384765625,783.6996459960938,794.1758422851562,792.967041015625
837,795.3846435546875,784.908447265625,793.3699340820312,799.8168334960938
838,788.937744140625,788.937744140625,798.2051391601562,793.7728881835938
839,788.937744140625,789.3406372070312,795.7875366210938,792.967041015625
840,796.996337890625,782.4908447265625,792.967041015625,800.2197875976562
841,800.2197875976562,782.4908447265625,796.1904907226562,805.4578857421875
842,795.3846435546875,792.1611938476562,796.5933837890625,797.8021850585938
843,797.8021850585938,795.3846435546875,798.6080322265625,795.7875366210938
844,794.1758422851562,796.996337890625,795.3846435546875,790.952392578125
845,787.3259887695312,796.996337890625,793.7728881835938,785.7142944335938
846,793.7728881835938,794.1758422851562,798.2051391601562,794.5787353515625
847,795.7875366210938,792.5640869140625,796.996337890625,797.8021850585938
848,794.5787353515625,797.8021850585938,796.996337890625,800.6226806640625
849,795.3846435546875,801.8314819335938,801.025634765625,801.8314819335938
850,793.3699340820312,799.8168334960938,799.8168334960938,791.7582397460938
851,790.1465454101562,799.8168334960938,794.1758422851562,786.1171875
852,796.5933837890625,800.6226806640625,797.8021850585938,786.5201416015625
853,799.8168334960938,797.3992919921875,801.025634765625,790.952392578125
854,794.5787353515625,793.7728881835938,799.010986328125,795.7875366210938
855,791.7582397460938,788.1318969726562,798.2051391601562,794.1758422851562
856,792.5640869140625,786.923095703125,796.1904907226562,789.3406372070312
857,795.3846435546875,788.1318969726562,792.1611938476562,788.937744140625
858,793.7728881835938,787.7289428710938,792.967041015625,794.5787353515625
859,794.1758422851562,789.3406372070312,798.2051391601562,799.010986328125
860,793.7728881835938,790.5494384765625,800.6226806640625,796.996337890625
861,791.7582397460938,792.1611938476562,797.8021850585938,793.7728881835938
862,800.2197875976562,794.981689453125,800.6226806640625,801.025634765625
863,802.2344360351562,792.967041015625,803.040283203125,804.6520385742188
864,798.2051391601562,792.1611938476562,802.2344360351562,801.025634765625
865,798.6080322265625,792.1611938476562,799.010986328125,795.7875366210938
866,799.8168334960938,788.937744140625,795.7875366210938,790.1465454101562
867,801.4285888671875,790.1465454101562,798.6080322265625,805.054931640625
868,797.3992919921875,793.7728881835938,801.025634765625,815.1282348632812
869,794.1758422851562,799.010986328125,801.4285888671875,807.069580078125
870,792.1611938476562,799.4139404296875,799.8168334960938,804.6520385742188
871,788.937744140625,792.5640869140625,794.981689453125,805.8607788085938
872,791.7582397460938,792.967041015625,797.3992919921875,800.2197875976562
873,798.6080322265625,796.996337890625,800.2197875976562,795.3846435546875
874,796.1904907226562,792.1611938476562,797.8021850585938,790.952392578125
875,788.937744140625,790.1465454101562,796.996337890625,788.937744140625
876,792.967041015625,793.3699340820312,796.996337890625,788.937744140625
877,793.3699340820312,795.7875366210938,795.7875366210938,788.5347900390625
878,789.7435913085938,794.5787353515625,797.3992919921875,785.3113403320312
879,786.5201416015625,792.1611938476562,799.4139404296875,788.937744140625
880,780.4761962890625,792.1611938476562,797.8021850585938,788.937744140625
881,783.2966918945312,790.1465454101562,796.996337890625,788.1318969726562
882,789.3406372070312,788.937744140625,796.5933837890625,800.6226806640625
883,793.3699340820312,788.937744140625,796.1904907226562,809.4871826171875
884,789.3406372070312,790.5494384765625,798.2051391601562,795.7875366210938
885,787.3259887695312,794.981689453125,797.3992919921875,782.893798828125
886,791.7582397460938,795.3846435546875,793.7728881835938,781.2820434570312
887,791.3552856445312,795.3846435546875,794.1758422851562,781.6849975585938
888,788.1318969726562,795.3846435546875,792.1611938476562,780.0732421875
889,792.1611938476562,796.996337890625,792.967041015625,782.4908447265625
890,796.1904907226562,796.1904907226562,793.3699340820312,791.3552856445312
891,798.2051391601562,797.3992919921875,792.5640869140625,804.2490844726562
892,800.2197875976562,802.2344360351562,794.981689453125,803.8461303710938
893,798.6080322265625,799.4139404296875,792.1611938476562,799.010986328125
894,795.7875366210938,796.1904907226562,791.7582397460938,802.6373901367188
895,789.3406372070312,794.981689453125,792.1611938476562,788.5347900390625
896,790.5494384765625,794.1758422851562,791.3552856445312,784.5054931640625
897,796.1904907226562,796.5933837890625,793.3699340820312,795.3846435546875
898,799.8168334960938,798.6080322265625,791.7582397460938,794.5787353515625
899,802.2344360351562,800.2197875976562,792.5640869140625,793.3699340820312
900,805.8607788085938,798.6080322265625,796.5933837890625,796.996337890625
901,808.6813354492188,795.7875366210938,791.7582397460938,796.5933837890625
902,804.6520385742188,794.5787353515625,789.3406372070312,791.3552856445312
903,803.040283203125,794.1758422851562,789.3406372070312,787.7289428710938
904,806.6666870117188,795.7875366210938,790.952392578125,792.967041015625
905,803.4432373046875,793.7728881835938,793.3699340820312,799.010986328125
906,795.3846435546875,792.1611938476562,794.981689453125,800.6226806640625
907,796.5933837890625,791.3552856445312,799.4139404296875,805.4578857421875
908,797.8021850585938,789.3406372070312,799.8168334960938,805.4578857421875
909,792.1611938476562,788.1318969726562,798.6080322265625,803.8461303710938
910,785.3113403320312,785.3113403320312,792.1611938476562,801.4285888671875
911,786.1171875,790.1465454101562,792.967041015625,796.5933837890625
912,791.7582397460938,791.7582397460938,797.3992919921875,794.1758422851562
913,793.7728881835938,790.5494384765625,799.4139404296875,798.2051391601562
914,790.952392578125,788.1318969726562,801.4285888671875,800.2197875976562
915,787.7289428710938,788.1318969726562,803.040283203125,798.2051391601562
916,788.1318969726562,790.952392578125,799.010986328125,798.6080322265625
917,788.937744140625,786.5201416015625,793.3699340820312,800.6226806640625
918,799.010986328125,790.1465454101562,799.010986328125,798.6080322265625
919,796.1904907226562,792.1611938476562,801.8314819335938,793.7728881835938
920,784.908447265625,790.5494384765625,798.6080322265625,791.3552856445312
921,792.1611938476562,798.2051391601562,802.2344360351562,799.4139404296875
922,797.8021850585938,805.054931640625,805.054931640625,797.8021850585938
923,799.4139404296875,800.6226806640625,799.4139404296875,795.7875366210938
924,807.069580078125,792.967041015625,799.4139404296875,803.040283203125
925,801.025634765625,792.967041015625,801.4285888671875,795.7875366210938
926,790.952392578125,797.8021850585938,802.2344360351562,787.7289428710938
927,794.981689453125,797.8021850585938,803.040283203125,792.1611938476562
928,803.8461303710938,799.4139404296875,804.2490844726562,797.3992919921875
929,805.8607788085938,801.8314819335938,805.054931640625,803.8461303710938
930,805.8607788085938,796.5933837890625,802.6373901367188,807.4725341796875
931,800.2197875976562,792.967041015625,799.010986328125,799.8168334960938
932,794.981689453125,791.3552856445312,797.8021850585938,799.010986328125
933,797.8021850585938,788.5347900390625,799.010986328125,800.2197875976562
934,805.4578857421875,790.952392578125,800.6226806640625,802.6373901367188
935,805.8607788085938,796.5933837890625,799.010986328125,806.6666870117188
936,800.2197875976562,793.3699340820312,795.3846435546875,802.2344360351562
937,798.2051391601562,789.7435913085938,795.7875366210938,796.996337890625
938,796.996337890625,791.7582397460938,791.3552856445312,791.7582397460938
939,796.1904907226562,791.3552856445312,787.7289428710938,790.5494384765625
940,790.952392578125,787.7289428710938,788.1318969726562,794.981689453125
941,784.908447265625,784.5054931640625,784.908447265625,796.1904907226562
942,788.937744140625,786.5201416015625,788.1318969726562,793.3699340820312
943,788.937744140625,790.1465454101562,789.3406372070312,791.3552856445312
944,787.7289428710938,787.7289428710938,785.7142944335938,794.5787353515625
945,789.7435913085938,790.5494384765625,786.5201416015625,794.5787353515625
946,790.1465454101562,794.5787353515625,789.3406372070312,790.5494384765625
947,791.7582397460938,791.3552856445312,792.967041015625,784.1025390625
948,794.1758422851562,791.3552856445312,795.3846435546875,783.6996459960938
949,801.4285888671875,792.5640869140625,796.996337890625,793.7728881835938
950,803.8461303710938,793.7728881835938,794.981689453125,793.3699340820312
951,801.8314819335938,795.3846435546875,796.996337890625,790.952392578125
952,796.5933837890625,795.3846435546875,801.4285888671875,800.2197875976562
953,793.3699340820312,793.3699340820312,801.4285888671875,803.8461303710938
954,799.8168334960938,790.952392578125,799.8168334960938,795.7875366210938
955,801.8314819335938,788.937744140625,796.5933837890625,799.010986328125
956,795.7875366210938,786.923095703125,794.1758422851562,804.6520385742188
957,787.7289428710938,789.3406372070312,798.2051391601562,794.981689453125
958,792.1611938476562,793.7728881835938,802.2344360351562,793.7728881835938
959,807.87548828125,794.5787353515625,802.6373901367188,804.6520385742188
960,805.8607788085938,796.1904907226562,799.8168334960938,803.8461303710938
961,796.996337890625,795.7875366210938,797.8021850585938,800.2197875976562
962,794.981689453125,792.967041015625,799.010986328125,803.8461303710938
963,795.7875366210938,797.3992919921875,799.8168334960938,805.4578857421875
964,793.7728881835938,800.2197875976562,797.3992919921875,798.6080322265625
965,789.3406372070312,796.996337890625,797.3992919921875,791.7582397460938
966,788.5347900390625,798.2051391601562,797.8021850585938,794.5787353515625
967,791.7582397460938,799.010986328125,796.996337890625,803.040283203125
968,792.967041015625,799.4139404296875,801.4285888671875,800.2197875976562
969,799.010986328125,800.6226806640625,806.6666870117188,797.3992919921875
970,802.6373901367188,799.8168334960938,805.4578857421875,797.8021850585938
971,793.3699340820312,796.5933837890625,798.2051391601562,791.3552856445312
972,792.967041015625,795.7875366210938,798.2051391601562,793.7728881835938
973,794.1758422851562,796.5933837890625,802.2344360351562,801.4285888671875
974,792.967041015625,792.967041015625,799.8168334960938,799.010986328125
975,798.6080322265625,791.7582397460938,799.010986328125,795.3846435546875
976,801.025634765625,795.3846435546875,801.025634765625,797.3992919921875
977,801.4285888671875,796.5933837890625,803.040283203125,803.040283203125
978,803.040283203125,795.3846435546875,801.8314819335938,806.2637329101562
979,805.8607788085938,796.996337890625,800.6226806640625,809.4871826171875
980,805.4578857421875,800.6226806640625,800.6226806640625,810.6959838867188
981,802.6373901367188,797.3992919921875,796.5933837890625,805.054931640625
982,796.5933837890625,792.5640869140625,795.3846435546875,802.6373901367188
983,793.3699340820312,795.3846435546875,799.4139404296875,807.4725341796875
984,793.3699340820312,794.5787353515625,799.8168334960938,806.2637329101562
985,803.040283203125,792.1611938476562,796.996337890625,804.2490844726562
986,802.2344360351562,791.3552856445312,796.1904907226562,809.89013671875
987,794.1758422851562,791.3552856445312,801.8314819335938,810.2930297851562
988,792.967041015625,791.7582397460938,805.8607788085938,800.2197875976562
989,791.3552856445312,788.1318969726562,805.8607788085938,797.8021850585938
990,790.952392578125,785.7142944335938,801.8314819335938,805.054931640625
991,790.1465454101562,790.952392578125,803.4432373046875,805.8607788085938
992,793.7728881835938,796.996337890625,805.4578857421875,804.2490844726562
993,793.3699340820312,792.1611938476562,800.6226806640625,804.2490844726562
994,790.952392578125,789.7435913085938,802.2344360351562,801.8314819335938
995,793.3699340820312,788.5347900390625,804.6520385742188,799.010986328125
996,800.2197875976562,788.5347900390625,803.040283203125,800.6226806640625
997,804.6520385742188,790.1465454101562,799.010986328125,799.4139404296875
998,802.2344360351562,788.1318969726562,799.4139404296875,791.3552856445312
999,799.8168334960938,786.923095703125,797.3992919921875,789.7435913085938
1000,806.6666870117188,793.3699340820312,796.5933837890625,792.5640869140625
1001,807.069580078125,794.5787353515625,797.8021850585938,797.3992919921875
1002,800.2197875976562,791.7582397460938,797.8021850585938,802.6373901367188
1003,791.7582397460938,794.5787353515625,804.6520385742188,792.5640869140625
1004,792.1611938476562,794.981689453125,804.6520385742188,795.3846435546875
1005,796.996337890625,790.952392578125,802.6373901367188,800.6226806640625
1006,794.981689453125,791.3552856445312,803.8461303710938,796.1904907226562
1007,799.8168334960938,794.1758422851562,803.8461303710938,798.2051391601562
1008,796.5933837890625,790.5494384765625,802.2344360351562,796.5933837890625
1009,792.967041015625,789.7435913085938,802.6373901367188,796.1904907226562
1010,792.967041015625,791.7582397460938,805.054931640625,797.8021850585938
1011,798.2051391601562,792.1611938476562,801.8314819335938,799.8168334960938
1012,806.6666870117188,791.7582397460938,800.2197875976562,805.8607788085938
1013,803.040283203125,783.2966918945312,797.8021850585938,811.098876953125
1014,799.010986328125,786.923095703125,795.7875366210938,810.2930297851562
1015,795.3846435546875,791.3552856445312,798.2051391601562,802.6373901367188
1016,790.952392578125,787.7289428710938,799.010986328125,796.1904907226562
1017,791.3552856445312,783.2966918945312,795.3846435546875,797.8021850585938
1018,795.3846435546875,784.1025390625,793.3699340820312,796.1904907226562
1019,797.3992919921875,789.3406372070312,798.2051391601562,794.5787353515625
1020,796.5933837890625,789.7435913085938,798.2051391601562,795.7875366210938
1021,803.8461303710938,793.3699340820312,798.6080322265625,794.981689453125
1022,803.040283203125,794.981689453125,796.5933837890625,796.1904907226562
1023,801.4285888671875,790.952392578125,796.5933837890625,798.6080322265625
1024,798.2051391601562,788.937744140625,799.8168334960938,794.981689453125
1025,794.981689453125,790.1465454101562,801.025634765625,796.996337890625
1026,799.8168334960938,792.1611938476562,802.6373901367188,806.2637329101562
1027,796.1904907226562,789.7435913085938,802.6373901367188,806.2637329101562
1028,796.1904907226562,788.5347900390625,800.6226806640625,807.87548828125
1029,793.7728881835938,789.7435913085938,800.6226806640625,812.3076782226562
1030,786.5201416015625,788.937744140625,796.1904907226562,800.6226806640625
1031,792.5640869140625,792.5640869140625,792.5640869140625,800.2197875976562
1032,793.7728881835938,789.7435913085938,795.7875366210938,801.8314819335938
1033,791.3552856445312,784.908447265625,796.996337890625,799.8168334960938
1034,795.7875366210938,786.5201416015625,799.010986328125,803.8461303710938
1035,794.1758422851562,777.6557006835938,800.6226806640625,795.7875366210938
1036,793.7728881835938,772.4176025390625,801.8314819335938,790.5494384765625
1037,797.8021850585938,778.4615478515625,805.4578857421875,797.8021850585938
1038,794.1758422851562,776.0439453125,794.981689453125,794.5787353515625
1039,786.1171875,775.2380981445312,789.3406372070312,790.952392578125
1040,792.1611938476562,782.4908447265625,794.5787353515625,790.952392578125
1041,801.8314819335938,788.5347900390625,801.4285888671875,788.5347900390625
1042,807.069580078125,792.1611938476562,806.6666870117188,792.5640869140625
1043,806.6666870117188,790.1465454101562,797.3992919921875,792.967041015625
1044,803.040283203125,786.923095703125,798.2051391601562,793.3699340820312
1045,798.6080322265625,786.1171875,804.2490844726562,797.8021850585938
1046,795.7875366210938,783.2966918945312,805.8607788085938,797.3992919921875
1047,800.6226806640625,784.1025390625,801.025634765625,796.996337890625
1048,802.2344360351562,785.3113403320312,797.3992919921875,805.8607788085938
1049,801.4285888671875,786.1171875,803.8461303710938,802.2344360351562
1050,802.6373901367188,788.937744140625,805.4578857421875,796.996337890625
1051,802.6373901367188,787.3259887695312,798.6080322265625,803.8461303710938
1052,799.4139404296875,783.2966918945312,801.4285888671875,806.2637329101562
1053,797.8021850585938,790.5494384765625,803.040283203125,797.8021850585938
1054,793.7728881835938,794.981689453125,799.8168334960938,789.3406372070312
1055,787.3259887695312,788.937744140625,800.2197875976562,788.937744140625
1056,791.3552856445312,784.908447265625,800.2197875976562,785.3113403320312
1057,796.5933837890625,788.1318969726562,800.6226806640625,786.923095703125
1058,794.5787353515625,787.3259887695312,796.5933837890625,793.7728881835938
1059,796.1904907226562,788.5347900390625,797.3992919921875,796.5933837890625
1060,798.6080322265625,788.937744140625,800.2197875976562,795.3846435546875
1061,792.5640869140625,782.4908447265625,799.8168334960938,791.7582397460938
1062,792.5640869140625,781.6849975585938,799.8168334960938,796.5933837890625
1063,796.996337890625,782.4908447265625,798.2051391601562,804.2490844726562
1064,795.7875366210938,785.3113403320312,798.6080322265625,798.2051391601562
1065,793.7728881835938,789.7435913085938,803.040283203125,796.996337890625
1066,801.4285888671875,793.7728881835938,807.4725341796875,802.6373901367188
1067,806.6666870117188,794.5787353515625,803.4432373046875,806.6666870117188
1068,805.8607788085938,789.3406372070312,801.4285888671875,807.4725341796875
1069,807.069580078125,787.7289428710938,797.3992919921875,803.4432373046875
1070,806.6666870117188,793.7728881835938,792.1611938476562,806.6666870117188
1071,805.054931640625,792.1611938476562,794.981689453125,807.87548828125
1072,801.8314819335938,786.5201416015625,793.7728881835938,803.040283203125
1073,802.2344360351562,791.7582397460938,791.3552856445312,807.069580078125
1074,799.8168334960938,794.1758422851562,792.967041015625,811.90478515625
1075,794.1758422851562,787.3259887695312,795.7875366210938,806.2637329101562
1076,792.5640869140625,786.923095703125,795.7875366210938,798.2051391601562
1077,796.5933837890625,788.5347900390625,798.2051391601562,794.1758422851562
1078,797.8021850585938,787.3259887695312,802.2344360351562,799.8168334960938
1079,796.1904907226562,790.5494384765625,802.2344360351562,796.5933837890625
1080,799.4139404296875,792.5640869140625,803.4432373046875,797.8021850585938
1081,805.4578857421875,792.5640869140625,805.4578857421875,802.6373901367188
1082,803.040283203125,791.3552856445312,803.8461303710938,807.069580078125
1083,797.8021850585938,790.1465454101562,802.6373901367188,813.113525390625
1084,796.996337890625,790.5494384765625,802.2344360351562,799.8168334960938
1085,795.7875366210938,786.923095703125,801.4285888671875,793.3699340820312
1086,792.1611938476562,783.6996459960938,799.010986328125,801.025634765625
1087,790.952392578125,787.3259887695312,796.996337890625,793.7728881835938
1088,797.3992919921875,788.937744140625,799.8168334960938,789.7435913085938
1089,799.4139404296875,786.1171875,799.8168334960938,799.010986328125
1090,797.3992919921875,778.8644409179688,798.2051391601562,804.6520385742188
1091,793.3699340820312,777.6557006835938,803.040283203125,800.6226806640625
1092,792.1611938476562,784.5054931640625,801.025634765625,796.5933837890625
1093,794.1758422851562,782.4908447265625,796.1904907226562,809.084228515625
1094,794.1758422851562,778.05859375,799.8168334960938,809.4871826171875
1095,790.952392578125,778.4615478515625,799.8168334960938,794.981689453125
1096,792.1611938476562,784.5054931640625,799.8168334960938,795.3846435546875
1097,792.967041015625,779.2673950195312,803.8461303710938,798.6080322265625
1098,790.952392578125,775.2380981445312,803.040283203125,799.8168334960938
1099,791.3552856445312,782.893798828125,801.025634765625,793.3699340820312
1100,791.3552856445312,786.923095703125,798.2051391601562,788.5347900390625
1101,784.1025390625,784.908447265625,794.5787353515625,783.6996459960938
1102,783.2966918945312,786.5201416015625,794.5787353515625,786.1171875
1103,787.3259887695312,790.952392578125,797.8021850585938,786.5201416015625
1104,785.3113403320312,789.7435913085938,796.5933837890625,783.6996459960938
1105,784.908447265625,788.5347900390625,794.981689453125,788.5347900390625
1106,786.1171875,784.5054931640625,795.7875366210938,788.1318969726562
1107,786.5201416015625,783.6996459960938,799.8168334960938,786.1171875
1108,791.3552856445312,786.923095703125,801.8314819335938,790.1465454101562
1109,797.8021850585938,786.1171875,794.5787353515625,794.981689453125
1110,798.6080322265625,790.5494384765625,795.7875366210938,794.1758422851562
1111,795.7875366210938,793.3699340820312,796.996337890625,792.5640869140625
1112,794.981689453125,791.3552856445312,791.7582397460938,791.7582397460938
1113,796.996337890625,788.1318969726562,789.7435913085938,792.5640869140625
1114,799.4139404296875,792.5640869140625,788.1318969726562,788.1318969726562
1115,803.4432373046875,798.2051391601562,789.7435913085938,792.967041015625
1116,805.4578857421875,794.1758422851562,794.1758422851562,798.2051391601562
1117,805.8607788085938,788.937744140625,793.7728881835938,795.3846435546875
1118,797.3992919921875,784.908447265625,790.952392578125,791.3552856445312
1119,791.7582397460938,787.3259887695312,791.3552856445312,790.5494384765625
1120,792.5640869140625,786.923095703125,790.5494384765625,792.967041015625
1121,789.7435913085938,784.908447265625,793.3699340820312,792.967041015625
1122,790.5494384765625,791.7582397460938,798.2051391601562,799.4139404296875
1123,790.5494384765625,792.967041015625,799.4139404296875,801.8314819335938
1124,784.5054931640625,790.5494384765625,796.1904907226562,799.4139404296875
1125,789.3406372070312,790.5494384765625,794.5787353515625,802.2344360351562
1126,788.937744140625,788.1318969726562,792.967041015625,789.3406372070312
1127,780.879150390625,783.6996459960938,789.3406372070312,785.7142944335938
1128,786.1171875,785.3113403320312,792.1611938476562,792.1611938476562
1129,787.7289428710938,791.7582397460938,794.981689453125,788.937744140625
1130,782.893798828125,795.7875366210938,793.7728881835938,786.5201416015625
1131,785.3113403320312,790.5494384765625,794.1758422851562,790.5494384765625
1132,785.3113403320312,789.3406372070312,791.7582397460938,791.7582397460938
1133,783.2966918945312,793.3699340820312,790.1465454101562,790.952392578125
1134,788.5347900390625,791.7582397460938,794.981689453125,797.8021850585938
1135,792.967041015625,787.3259887695312,793.7728881835938,800.2197875976562
1136,791.3552856445312,785.7142944335938,789.3406372070312,800.6226806640625
1137,794.981689453125,790.1465454101562,794.1758422851562,800.6226806640625
1138,802.2344360351562,792.1611938476562,799.4139404296875,797.3992919921875
1139,803.040283203125,790.1465454101562,797.3992919921875,795.7875366210938
1140,799.010986328125,788.937744140625,792.5640869140625,799.010986328125
1141,797.3992919921875,786.923095703125,796.996337890625,802.6373901367188
1142,792.5640869140625,781.6849975585938,799.010986328125,794.5787353515625
1143,794.981689453125,786.1171875,799.010986328125,791.3552856445312
1144,799.8168334960938,788.5347900390625,797.8021850585938,797.8021850585938
1145,800.6226806640625,785.3113403320312,800.2197875976562,801.8314819335938
1146,795.3846435546875,782.087890625,802.6373901367188,798.6080322265625
1147,792.967041015625,780.4761962890625,801.8314819335938,797.8021850585938
1148,795.3846435546875,783.2966918945312,804.6520385742188,805.8607788085938
1149,794.1758422851562,787.3259887695312,802.2344360351562,801.025634765625
1150,794.1758422851562,785.7142944335938,800.6226806640625,797.3992919921875
1151,788.1318969726562,784.1025390625,798.2051391601562,796.5933837890625
1152,786.923095703125,783.6996459960938,794.981689453125,792.1611938476562
1153,790.1465454101562,787.7289428710938,794.5787353515625,794.1758422851562
1154,787.7289428710938,788.5347900390625,794.1758422851562,789.3406372070312
1155,789.3406372070312,782.087890625,790.952392578125,781.2820434570312
1156,793.7728881835938,781.6849975585938,791.7582397460938,788.5347900390625
1157,792.967041015625,782.893798828125,796.1904907226562,795.7875366210938
1158,797.3992919921875,789.3406372070312,796.996337890625,799.8168334960938
1159,796.5933837890625,790.952392578125,795.3846435546875,805.8607788085938
1160,797.8021850585938,788.5347900390625,792.1611938476562,802.2344360351562
1161,800.2197875976562,786.1171875,794.5787353515625,787.3259887695312
1162,799.010986328125,790.1465454101562,798.2051391601562,787.3259887695312
1163,799.8168334960938,792.5640869140625,798.6080322265625,790.5494384765625
1164,801.025634765625,793.7728881835938,800.6226806640625,794.1758422851562
1165,800.6226806640625,795.7875366210938,801.8314819335938,799.4139404296875
1166,800.6226806640625,798.6080322265625,800.6226806640625,799.010986328125
1167,796.1904907226562,801.025634765625,799.8168334960938,796.996337890625
1168,799.8168334960938,800.6226806640625,799.4139404296875,803.040283203125
1169,805.054931640625,796.5933837890625,798.6080322265625,807.4725341796875
1170,800.6226806640625,792.5640869140625,796.5933837890625,808.6813354492188
1171,800.6226806640625,794.5787353515625,793.7728881835938,809.084228515625
1172,796.996337890625,797.8021850585938,796.996337890625,792.1611938476562
1173,792.967041015625,796.1904907226562,799.010986328125,784.1025390625
1174,786.1171875,787.7289428710938,796.5933837890625,789.7435913085938
1175,787.7289428710938,786.1171875,796.1904907226562,793.3699340820312
1176,792.967041015625,784.1025390625,796.996337890625,794.981689453125
1177,792.1611938476562,779.2673950195312,791.7582397460938,796.1904907226562
1178,790.952392578125,787.3259887695312,792.5640869140625,795.3846435546875
1179,792.1611938476562,790.952392578125,794.5787353515625,790.952392578125
1180,800.2197875976562,786.1171875,792.967041015625,796.996337890625
1181,801.8314819335938,782.4908447265625,793.3699340820312,806.6666870117188
1182,794.5787353515625,782.087890625,796.1904907226562,813.113525390625
1183,793.3699340820312,784.5054931640625,802.2344360351562,809.89013671875
1184,794.981689453125,784.5054931640625,800.6226806640625,804.2490844726562
1185,795.7875366210938,784.5054931640625,799.010986328125,804.2490844726562
1186,799.8168334960938,780.879150390625,799.8168334960938,802.6373901367188
1187,799.010986328125,778.8644409179688,799.010986328125,800.2197875976562
1188,797.3992919921875,781.2820434570312,799.4139404296875,801.025634765625
1189,792.5640869140625,781.2820434570312,795.7875366210938,799.010986328125
1190,794.1758422851562,784.908447265625,796.996337890625,796.996337890625
1191,799.4139404296875,790.952392578125,799.4139404296875,793.3699340820312
1192,794.5787353515625,790.1465454101562,799.4139404296875,786.1171875
1193,796.996337890625,790.1465454101562,801.025634765625,791.3552856445312
1194,801.025634765625,788.1318969726562,802.6373901367188,800.2197875976562
1195,801.8314819335938,788.5347900390625,801.8314819335938,798.2051391601562
1196,801.4285888671875,794.5787353515625,798.2051391601562,796.5933837890625
1197,800.2197875976562,790.952392578125,796.996337890625,798.6080322265625
1198,798.2051391601562,780.879150390625,797.3992919921875,794.981689453125
1199,796.996337890625,787.3259887695312,800.6226806640625,790.5494384765625
1200,798.6080322265625,793.3699340820312,802.6373901367188,791.3552856445312
1201,799.8168334960938,790.952392578125,801.8314819335938,797.3992919921875
1202,799.4139404296875,794.1758422851562,800.2197875976562,793.3699340820312
1203,792.5640869140625,794.1758422851562,799.010986328125,784.908447265625
1204,789.7435913085938,789.7435913085938,800.6226806640625,787.7289428710938
1205,794.1758422851562,791.7582397460938,801.4285888671875,793.7728881835938
1206,794.1758422851562,794.981689453125,800.6226806640625,801.025634765625
1207,796.1904907226562,794.5787353515625,803.8461303710938,799.8168334960938
1208,796.1904907226562,794.1758422851562,803.8461303710938,791.3552856445312
1209,797.8021850585938,788.937744140625,799.8168334960938,798.6080322265625
1210,800.2197875976562,786.1171875,801.8314819335938,805.054931640625
1211,798.2051391601562,789.3406372070312,799.010986328125,801.8314819335938
1212,792.5640869140625,784.908447265625,795.7875366210938,798.6080322265625
1213,789.7435913085938,782.087890625,801.025634765625,795.7875366210938
1214,789.7435913085938,787.3259887695312,797.8021850585938,795.3846435546875
1215,792.5640869140625,791.7582397460938,796.5933837890625,801.8314819335938
1216,796.996337890625,790.952392578125,803.040283203125,811.90478515625
1217,793.3699340820312,790.952392578125,801.4285888671875,812.3076782226562
1218,796.1904907226562,794.5787353515625,802.6373901367188,809.89013671875
1219,795.7875366210938,794.1758422851562,804.2490844726562,801.4285888671875
1220,791.7582397460938,791.7582397460938,797.3992919921875,796.1904907226562
1221,799.010986328125,792.967041015625,796.996337890625,805.4578857421875
1222,803.040283203125,794.981689453125,800.2197875976562,801.8314819335938
1223,803.8461303710938,790.952392578125,800.2197875976562,797.3992919921875
1224,804.2490844726562,786.923095703125,799.4139404296875,804.2490844726562
1225,802.2344360351562,792.1611938476562,800.6226806640625,807.4725341796875
1226,801.025634765625,797.3992919921875,801.8314819335938,804.2490844726562
1227,802.6373901367188,794.1758422851562,801.4285888671875,798.2051391601562
1228,803.4432373046875,787.7289428710938,796.5933837890625,801.8314819335938
1229,798.2051391601562,789.7435913085938,797.3992919921875,802.6373901367188
1230,792.5640869140625,795.7875366210938,801.025634765625,795.7875366210938
1231,795.3846435546875,798.2051391601562,800.6226806640625,798.6080322265625
1232,794.5787353515625,794.1758422851562,798.6080322265625,806.2637329101562
1233,788.5347900390625,790.5494384765625,797.8021850585938,799.4139404296875
1234,792.5640869140625,795.7875366210938,798.2051391601562,792.967041015625
1235,792.967041015625,797.3992919921875,799.4139404296875,791.3552856445312
1236,788.5347900390625,794.981689453125,798.2051391601562,787.7289428710938
1237,790.1465454101562,795.3846435546875,797.8021850585938,796.996337890625
1238,792.967041015625,792.1611938476562,802.2344360351562,801.8314819335938
1239,792.967041015625,786.1171875,800.2197875976562,793.3699340820312
1240,791.7582397460938,787.7289428710938,795.7875366210938,787.3259887695312
1241,786.5201416015625,784.908447265625,797.3992919921875,789.7435913085938
1242,785.3113403320312,782.4908447265625,798.6080322265625,798.6080322265625
1243,790.1465454101562,784.5054931640625,796.996337890625,801.4285888671875
1244,790.1465454101562,781.2820434570312,794.981689453125,794.981689453125
1245,785.7142944335938,782.087890625,796.996337890625,791.3552856445312
1246,783.2966918945312,781.6849975585938,797.8021850585938,791.7582397460938
1247,790.5494384765625,780.0732421875,796.996337890625,796.5933837890625
1248,795.7875366210938,785.3113403320312,796.1904907226562,800.2197875976562
1249,793.7728881835938,788.1318969726562,791.7582397460938,792.5640869140625
1250,791.3552856445312,784.908447265625,789.3406372070312,785.7142944335938
1251,793.3699340820312,784.908447265625,791.3552856445312,802.2344360351562
1252,800.2197875976562,784.908447265625,792.967041015625,803.8461303710938
1253,800.2197875976562,779.6703491210938,795.7875366210938,785.7142944335938
1254,795.3846435546875,782.4908447265625,799.4139404296875,787.7289428710938
1255,794.1758422851562,784.5054931640625,795.3846435546875,796.5933837890625
1256,794.1758422851562,789.3406372070312,795.7875366210938,798.2051391601562
1257,794.5787353515625,789.7435913085938,799.8168334960938,797.3992919921875
1258,796.5933837890625,786.1171875,797.3992919921875,801.4285888671875
1259,797.8021850585938,787.3259887695312,798.2051391601562,795.3846435546875
1260,795.7875366210938,786.5201416015625,799.8168334960938,790.1465454101562
1261,794.5787353515625,789.7435913085938,803.4432373046875,796.996337890625
1262,796.996337890625,790.5494384765625,798.6080322265625,800.2197875976562
1263,797.3992919921875,788.937744140625,791.3552856445312,799.010986328125
1264,796.5933837890625,789.7435913085938,794.1758422851562,801.4285888671875
1265,796.5933837890625,788.937744140625,794.5787353515625,801.8314819335938
1266,797.3992919921875,788.937744140625,790.952392578125,803.4432373046875
1267,798.2051391601562,787.7289428710938,792.1611938476562,810.2930297851562
1268,798.2051391601562,788.937744140625,797.8021850585938,801.8314819335938
1269,795.3846435546875,790.5494384765625,796.5933837890625,796.1904907226562
1270,791.7582397460938,788.937744140625,794.5787353515625,800.2197875976562
1271,789.7435913085938,786.923095703125,796.5933837890625,794.981689453125
1272,790.952392578125,789.3406372070312,795.7875366210938,785.7142944335938
1273,794.1758422851562,786.923095703125,794.5787353515625,785.3113403320312
1274,793.7728881835938,786.923095703125,797.3992919921875,790.1465454101562
1275,798.6080322265625,795.3846435546875,801.4285888671875,792.5640869140625
1276,794.981689453125,792.967041015625,797.8021850585938,788.1318969726562
1277,788.937744140625,784.908447265625,791.7582397460938,786.1171875
1278,793.3699340820312,781.6849975585938,793.3699340820312,792.5640869140625
1279,794.5787353515625,786.923095703125,796.5933837890625,791.7582397460938
1280,796.5933837890625,790.952392578125,794.981689453125,790.5494384765625
1281,795.7875366210938,786.923095703125,798.6080322265625,793.7728881835938
1282,794.5787353515625,786.5201416015625,799.8168334960938,795.3846435546875
1283,796.1904907226562,787.7289428710938,799.010986328125,798.2051391601562
1284,794.1758422851562,784.1025390625,799.010986328125,798.6080322265625
1285,793.3699340820312,786.923095703125,798.6080322265625,800.2197875976562
1286,795.7875366210938,790.5494384765625,800.6226806640625,802.2344360351562
1287,791.7582397460938,790.952392578125,799.8168334960938,800.6226806640625
1288,794.981689453125,794.981689453125,799.8168334960938,801.4285888671875
1289,794.1758422851562,794.1758422851562,797.3992919921875,801.025634765625
1290,788.1318969726562,790.1465454101562,796.1904907226562,793.3699340820312
1291,786.5201416015625,786.923095703125,797.8021850585938,790.952392578125
1292,793.3699340820312,788.5347900390625,793.7728881835938,793.3699340820312
1293,799.010986328125,789.3406372070312,791.7582397460938,794.981689453125
1294,799.010986328125,790.952392578125,795.3846435546875,793.7728881835938
1295,797.3992919921875,792.967041015625,800.2197875976562,793.3699340820312
1296,795.7875366210938,791.7582397460938,803.4432373046875,796.996337890625
1297,799.010986328125,789.3406372070312,801.4285888671875,799.4139404296875
1298,798.2051391601562,792.5640869140625,800.6226806640625,796.5933837890625
1299,793.3699340820312,794.5787353515625,799.8168334960938,789.7435913085938
1300,796.996337890625,793.3699340820312,797.3992919921875,787.3259887695312
1301,800.6226806640625,790.5494384765625,794.1758422851562,795.7875366210938
1302,800.2197875976562,786.5201416015625,794.1758422851562,798.6080322265625
1303,799.4139404296875,792.967041015625,798.6080322265625,795.7875366210938
1304,801.025634765625,796.5933837890625,797.3992919921875,799.4139404296875
1305,799.8168334960938,790.5494384765625,795.7875366210938,804.2490844726562
1306,801.025634765625,792.1611938476562,800.6226806640625,800.6226806640625
1307,800.6226806640625,795.3846435546875,796.5933837890625,796.1904907226562
1308,805.054931640625,792.967041015625,794.1758422851562,794.5787353515625
1309,806.6666870117188,784.5054931640625,798.2051391601562,794.5787353515625
1310,803.8461303710938,778.8644409179688,797.8021850585938,793.7728881835938
1311,802.2344360351562,777.2527465820312,795.3846435546875,789.3406372070312
1312,801.4285888671875,780.4761962890625,794.1758422851562,792.1611938476562
1313,802.2344360351562,780.0732421875,799.010986328125,794.981689453125
1314,803.040283203125,776.8497924804688,799.8168334960938,790.952392578125
1315,801.8314819335938,782.087890625,798.6080322265625,790.952392578125
1316,804.2490844726562,781.2820434570312,794.5787353515625,793.3699340820312
1317,805.8607788085938,781.6849975585938,794.5787353515625,799.010986328125
1318,804.6520385742188,788.5347900390625,797.8021850585938,796.5933837890625
1319,803.040283203125,782.893798828125,798.2051391601562,789.3406372070312
1320,794.1758422851562,773.6264038085938,795.3846435546875,784.908447265625
1321,787.3259887695312,771.2088012695312,790.5494384765625,782.893798828125
1322,795.7875366210938,772.8204956054688,793.7728881835938,789.3406372070312
1323,794.5787353515625,774.4322509765625,795.3846435546875,796.1904907226562
1324,790.5494384765625,774.4322509765625,793.7728881835938,794.1758422851562
1325,788.937744140625,770.0,796.996337890625,790.1465454101562
1326,788.1318969726562,769.1941528320312,795.3846435546875,789.3406372070312
1327,789.3406372070312,775.6410522460938,792.1611938476562,790.5494384765625
1328,792.5640869140625,780.4761962890625,794.981689453125,803.4432373046875
1329,795.3846435546875,779.6703491210938,794.981689453125,812.7106323242188
1330,792.1611938476562,778.4615478515625,797.8021850585938,804.2490844726562
1331,791.3552856445312,781.6849975585938,799.8168334960938,796.1904907226562
1332,791.3552856445312,779.6703491210938,798.6080322265625,796.1904907226562
1333,795.7875366210938,774.029296875,801.4285888671875,807.069580078125
1334,796.996337890625,776.0439453125,801.4285888671875,809.4871826171875
1335,792.967041015625,788.1318969726562,794.5787353515625,796.5933837890625
1336,792.5640869140625,791.3552856445312,795.7875366210938,792.967041015625
1337,794.981689453125,786.5201416015625,801.025634765625,799.4139404296875
1338,795.7875366210938,784.1025390625,799.4139404296875,800.6226806640625
1339,801.8314819335938,779.6703491210938,798.2051391601562,806.6666870117188
1340,797.8021850585938,771.2088012695312,801.025634765625,805.054931640625
1341,793.3699340820312,778.8644409179688,804.2490844726562,799.4139404296875
1342,797.8021850585938,784.1025390625,801.8314819335938,801.025634765625
1343,798.6080322265625,776.8497924804688,796.5933837890625,803.4432373046875
1344,799.8168334960938,774.029296875,796.5933837890625,798.6080322265625
1345,794.981689453125,773.2234497070312,794.981689453125,791.7582397460938
1346,794.981689453125,775.2380981445312,791.3552856445312,794.1758422851562
1347,799.4139404296875,773.2234497070312,792.5640869140625,790.952392578125
1348,797.3992919921875,772.8204956054688,795.7875366210938,786.5201416015625
1349,797.8021850585938,775.6410522460938,797.3992919921875,791.3552856445312
1350,801.4285888671875,774.8351440429688,795.7875366210938,797.3992919921875
1351,799.8168334960938,777.2527465820312,798.2051391601562,807.069580078125
1352,798.6080322265625,779.2673950195312,803.8461303710938,805.054931640625
1353,803.4432373046875,784.1025390625,803.4432373046875,798.2051391601562
1354,800.2197875976562,781.6849975585938,802.2344360351562,794.5787353515625
1355,795.3846435546875,774.8351440429688,799.010986328125,790.5494384765625
1356,799.010986328125,778.4615478515625,792.1611938476562,791.7582397460938
1357,802.2344360351562,781.6849975585938,796.5933837890625,796.996337890625
1358,802.6373901367188,780.0732421875,802.2344360351562,799.4139404296875
1359,801.025634765625,781.2820434570312,801.4285888671875,795.7875366210938
1360,797.8021850585938,783.6996459960938,799.4139404296875,795.3846435546875
1361,798.2051391601562,782.4908447265625,796.1904907226562,796.5933837890625
1362,795.3846435546875,780.4761962890625,791.7582397460938,797.3992919921875
1363,790.952392578125,777.6557006835938,789.3406372070312,800.2197875976562
1364,792.967041015625,782.087890625,794.981689453125,793.3699340820312
1365,794.1758422851562,786.1171875,796.1904907226562,795.3846435546875
1366,794.5787353515625,782.4908447265625,791.7582397460938,799.4139404296875
1367,795.7875366210938,784.5054931640625,791.3552856445312,795.7875366210938
1368,794.1758422851562,786.923095703125,792.967041015625,796.996337890625
1369,797.8021850585938,787.3259887695312,794.5787353515625,805.8607788085938
1370,804.2490844726562,784.908447265625,794.5787353515625,804.2490844726562
1371,798.2051391601562,785.3113403320312,790.952392578125,787.3259887695312
1372,784.908447265625,785.7142944335938,792.5640869140625,782.087890625
1373,786.923095703125,778.05859375,792.1611938476562,787.7289428710938
1374,796.1904907226562,776.4468994140625,790.952392578125,794.981689453125
1375,794.1758422851562,782.087890625,799.4139404296875,790.952392578125
1376,794.981689453125,785.7142944335938,799.4139404296875,787.3259887695312
1377,794.5787353515625,784.5054931640625,799.4139404296875,790.952392578125
1378,789.7435913085938,782.4908447265625,799.4139404296875,790.1465454101562
1379,786.5201416015625,782.4908447265625,794.981689453125,786.5201416015625
1380,783.2966918945312,783.6996459960938,793.3699340820312,784.1025390625
1381,786.1171875,782.4908447265625,796.996337890625,791.7582397460938
1382,787.7289428710938,783.6996459960938,796.1904907226562,795.3846435546875
1383,788.1318969726562,789.7435913085938,798.2051391601562,797.3992919921875
1384,792.1611938476562,792.967041015625,804.2490844726562,804.2490844726562
1385,796.1904907226562,786.5201416015625,803.040283203125,805.8607788085938
1386,791.3552856445312,780.0732421875,801.8314819335938,806.2637329101562
1387,786.923095703125,783.6996459960938,802.2344360351562,799.8168334960938
1388,786.923095703125,784.908447265625,801.025634765625,792.967041015625
1389,789.3406372070312,784.5054931640625,798.6080322265625,796.996337890625
1390,791.3552856445312,782.087890625,799.8168334960938,801.025634765625
1391,792.1611938476562,786.923095703125,799.4139404296875,805.4578857421875
1392,794.1758422851562,787.7289428710938,801.8314819335938,802.2344360351562
1393,794.5787353515625,786.5201416015625,805.054931640625,796.996337890625
1394,787.7289428710938,787.7289428710938,802.6373901367188,799.010986328125
1395,786.923095703125,788.937744140625,804.6520385742188,804.2490844726562
1396,798.6080322265625,786.923095703125,803.8461303710938,808.2783813476562
1397,805.8607788085938,786.1171875,802.2344360351562,813.5164794921875
1398,798.2051391601562,785.3113403320312,800.6226806640625,808.2783813476562
1399,796.996337890625,781.6849975585938,799.4139404296875,800.6226806640625
1400,804.6520385742188,783.6996459960938,799.010986328125,798.2051391601562
1401,810.2930297851562,784.5054931640625,796.996337890625,804.6520385742188
1402,808.6813354492188,790.1465454101562,800.2197875976562,802.6373901367188
1403,802.6373901367188,794.1758422851562,803.040283203125,795.3846435546875
1404,796.1904907226562,790.952392578125,801.025634765625,797.8021850585938
1405,796.1904907226562,792.1611938476562,797.3992919921875,799.4139404296875
1406,801.8314819335938,796.1904907226562,797.8021850585938,801.8314819335938
1407,800.2197875976562,794.981689453125,799.010986328125,801.4285888671875
1408,803.040283203125,798.2051391601562,798.2051391601562,803.8461303710938
1409,797.8021850585938,799.8168334960938,801.025634765625,800.6226806640625
1410,794.5787353515625,794.981689453125,798.2051391601562,792.967041015625
1411,801.4285888671875,793.3699340820312,798.6080322265625,794.5787353515625
1412,801.4285888671875,794.5787353515625,801.4285888671875,801.025634765625
1413,801.4285888671875,792.5640869140625,796.1904907226562,811.5018310546875
1414,804.6520385742188,797.8021850585938,799.010986328125,807.87548828125
1415,799.010986328125,796.996337890625,802.2344360351562,798.2051391601562
1416,794.5787353515625,789.3406372070312,797.3992919921875,795.7875366210938
1417,794.1758422851562,785.3113403320312,795.7875366210938,798.6080322265625
1418,793.7728881835938,787.3259887695312,796.5933837890625,796.996337890625
1419,794.5787353515625,792.1611938476562,796.996337890625,798.6080322265625
1420,791.7582397460938,789.3406372070312,801.025634765625,794.981689453125
1421,794.5787353515625,792.967041015625,800.6226806640625,790.952392578125
1422,798.2051391601562,793.3699340820312,799.8168334960938,796.1904907226562
1423,793.7728881835938,792.967041015625,798.6080322265625,791.7582397460938
1424,792.1611938476562,796.5933837890625,794.981689453125,788.1318969726562
1425,793.7728881835938,798.2051391601562,794.1758422851562,792.967041015625
1426,792.5640869140625,799.4139404296875,794.1758422851562,798.2051391601562
1427,789.3406372070312,796.996337890625,794.5787353515625,799.010986328125
1428,792.5640869140625,793.3699340820312,793.7728881835938,797.3992919921875
1429,789.3406372070312,792.5640869140625,793.7728881835938,793.7728881835938
1430,786.923095703125,795.3846435546875,794.981689453125,787.3259887695312
1431,792.967041015625,794.1758422851562,800.6226806640625,792.1611938476562
1432,797.3992919921875,788.5347900390625,802.2344360351562,799.4139404296875
1433,799.4139404296875,790.1465454101562,800.2197875976562,792.5640869140625
1434,799.8168334960938,796.5933837890625,802.2344360351562,789.3406372070312
1435,801.025634765625,796.1904907226562,803.040283203125,796.5933837890625
1436,804.6520385742188,796.5933837890625,799.4139404296875,805.054931640625
1437,801.4285888671875,798.6080322265625,798.6080322265625,799.010986328125
1438,801.8314819335938,794.981689453125,802.2344360351562,791.7582397460938
1439,802.2344360351562,793.7728881835938,800.6226806640625,790.5494384765625
1440,801.8314819335938,798.6080322265625,801.4285888671875,799.010986328125
1441,800.6226806640625,797.3992919921875,803.8461303710938,806.6666870117188
1442,806.2637329101562,792.967041015625,802.2344360351562,809.89013671875
1443,807.4725341796875,792.1611938476562,799.4139404296875,805.4578857421875
1444,799.4139404296875,794.1758422851562,801.4285888671875,798.6080322265625
1445,794.981689453125,793.7728881835938,797.8021850585938,799.4139404296875
1446,792.5640869140625,792.5640869140625,797.8021850585938,799.8168334960938
1447,793.7728881835938,789.3406372070312,801.4285888671875,806.2637329101562
1448,799.8168334960938,791.3552856445312,803.040283203125,810.2930297851562
1449,804.6520385742188,796.996337890625,805.8607788085938,807.87548828125
1450,799.8168334960938,797.3992919921875,805.8607788085938,803.4432373046875
1451,800.2197875976562,798.6080322265625,806.6666870117188,804.6520385742188
1452,801.4285888671875,800.6226806640625,806.2637329101562,804.6520385742188
1453,799.4139404296875,795.3846435546875,806.2637329101562,799.010986328125
1454,802.6373901367188,789.7435913085938,804.6520385742188,807.4725341796875
1455,802.6373901367188,794.5787353515625,798.6080322265625,815.1282348632812
1456,800.2197875976562,794.981689453125,803.040283203125,807.87548828125
1457,792.967041015625,790.952392578125,808.2783813476562,794.1758422851562
1458,792.5640869140625,792.1611938476562,799.8168334960938,792.967041015625
1459,790.952392578125,791.7582397460938,791.7582397460938,797.3992919921875
1460,789.3406372070312,796.996337890625,792.5640869140625,794.5787353515625
1461,799.010986328125,799.4139404296875,790.1465454101562,796.5933837890625
1462,805.4578857421875,796.996337890625,792.967041015625,799.010986328125
1463,804.2490844726562,796.5933837890625,797.3992919921875,801.4285888671875
1464,806.2637329101562,797.3992919921875,797.8021850585938,804.2490844726562
1465,806.6666870117188,797.3992919921875,796.996337890625,808.6813354492188
1466,802.2344360351562,797.3992919921875,799.010986328125,806.2637329101562
1467,802.2344360351562,796.996337890625,799.8168334960938,796.5933837890625
1468,800.2197875976562,796.996337890625,796.1904907226562,790.952392578125
1469,796.1904907226562,794.5787353515625,795.7875366210938,792.5640869140625
1470,796.5933837890625,789.7435913085938,795.3846435546875,803.040283203125
1471,793.7728881835938,788.937744140625,792.5640869140625,807.87548828125
1472,797.8021850585938,789.3406372070312,799.4139404296875,803.040283203125
1473,804.6520385742188,793.7728881835938,801.8314819335938,807.069580078125
1474,801.8314819335938,799.4139404296875,803.4432373046875,816.3369750976562
1475,796.1904907226562,799.010986328125,803.4432373046875,813.5164794921875
1476,795.3846435546875,795.3846435546875,797.8021850585938,804.2490844726562
1477,800.2197875976562,796.1904907226562,796.996337890625,811.90478515625
1478,802.6373901367188,802.2344360351562,799.8168334960938,823.99267578125
1479,798.6080322265625,799.4139404296875,800.6226806640625,817.5457763671875
1480,795.3846435546875,796.1904907226562,799.8168334960938,807.87548828125
1481,790.952392578125,795.7875366210938,793.3699340820312,801.025634765625
1482,792.5640869140625,793.7728881835938,791.3552856445312,801.8314819335938
1483,794.1758422851562,791.7582397460938,791.3552856445312,801.025634765625
1484,798.6080322265625,795.7875366210938,795.3846435546875,803.8461303710938
1485,803.8461303710938,800.6226806640625,799.8168334960938,809.89013671875
1486,804.6520385742188,798.2051391601562,797.3992919921875,805.4578857421875
1487,804.6520385742188,798.2051391601562,800.2197875976562,797.3992919921875
1488,808.6813354492188,798.2051391601562,803.040283203125,802.6373901367188
1489,808.2783813476562,795.3846435546875,798.2051391601562,806.2637329101562
1490,800.2197875976562,789.7435913085938,796.996337890625,796.5933837890625
1491,797.3992919921875,786.5201416015625,800.2197875976562,794.5787353515625
1492,795.7875366210938,784.1025390625,794.5787353515625,790.952392578125
1493,795.3846435546875,783.2966918945312,792.5640869140625,794.1758422851562
1494,793.7728881835938,788.1318969726562,797.8021850585938,801.025634765625
1495,792.1611938476562,792.967041015625,797.8021850585938,793.3699340820312
1496,796.1904907226562,792.1611938476562,797.8021850585938,788.1318969726562
1497,799.010986328125,789.3406372070312,801.025634765625,796.1904907226562
1498,796.1904907226562,789.7435913085938,802.2344360351562,795.3846435546875
1499,794.981689453125,791.3552856445312,799.4139404296875,795.3846435546875
1500,798.2051391601562,792.1611938476562,796.1904907226562,804.2490844726562
1501,799.8168334960938,788.937744140625,795.3846435546875,811.5018310546875
1502,796.5933837890625,792.967041015625,794.981689453125,805.4578857421875
1503,794.1758422851562,796.996337890625,798.2051391601562,796.1904907226562
1504,796.996337890625,796.5933837890625,800.6226806640625,799.4139404296875
1505,796.1904907226562,794.5787353515625,796.996337890625,796.996337890625
1506,792.967041015625,794.981689453125,794.981689453125,792.5640869140625
1507,798.2051391601562,792.5640869140625,797.8021850585938,795.7875366210938
1508,807.4725341796875,792.5640869140625,796.996337890625,805.4578857421875
1509,799.8168334960938,796.1904907226562,795.3846435546875,804.6520385742188
1510,790.5494384765625,795.7875366210938,794.981689453125,792.5640869140625
1511,796.996337890625,792.967041015625,793.3699340820312,785.7142944335938
1512,799.010986328125,794.5787353515625,794.981689453125,788.1318969726562
1513,796.996337890625,794.981689453125,794.5787353515625,785.7142944335938
1514,797.8021850585938,794.5787353515625,795.3846435546875,784.908447265625
1515,797.8021850585938,792.1611938476562,792.5640869140625,789.3406372070312
1516,788.5347900390625,786.5201416015625,790.1465454101562,791.7582397460938
1517,784.1025390625,789.3406372070312,791.7582397460938,795.3846435546875
1518,790.1465454101562,794.1758422851562,793.3699340820312,793.7728881835938
1519,796.996337890625,788.5347900390625,797.8021850585938,790.5494384765625
1520,795.7875366210938,785.7142944335938,796.5933837890625,792.967041015625
1521,788.937744140625,794.981689453125,795.3846435546875,792.1611938476562
1522,792.5640869140625,795.3846435546875,796.1904907226562,786.1171875
1523,799.8168334960938,787.7289428710938,791.7582397460938,783.6996459960938
1524,805.054931640625,791.7582397460938,792.5640869140625,788.937744140625
1525,804.2490844726562,795.3846435546875,796.5933837890625,800.2197875976562
1526,793.3699340820312,789.3406372070312,794.5787353515625,798.6080322265625
1527,789.7435913085938,788.1318969726562,790.5494384765625,790.952392578125
1528,789.7435913085938,791.7582397460938,790.1465454101562,794.5787353515625
1529,785.3113403320312,786.5201416015625,792.1611938476562,791.7582397460938
1530,788.1318969726562,787.3259887695312,796.1904907226562,788.937744140625
1531,784.908447265625,792.5640869140625,794.1758422851562,793.3699340820312
1532,782.4908447265625,791.3552856445312,792.967041015625,802.2344360351562
1533,784.5054931640625,792.5640869140625,796.1904907226562,801.025634765625
1534,787.7289428710938,793.7728881835938,794.981689453125,794.5787353515625
1535,792.5640869140625,794.981689453125,792.5640869140625,798.2051391601562
1536,794.1758422851562,794.1758422851562,794.5787353515625,799.8168334960938
1537,786.5201416015625,791.3552856445312,797.8021850585938,796.996337890625
1538,787.3259887695312,791.3552856445312,799.4139404296875,794.981689453125
1539,794.5787353515625,790.952392578125,798.2051391601562,796.1904907226562
1540,797.3992919921875,789.3406372070312,800.2197875976562,797.8021850585938
1541,797.8021850585938,786.5201416015625,802.6373901367188,803.4432373046875
1542,792.967041015625,790.952392578125,797.8021850585938,803.8461303710938
1543,786.5201416015625,789.3406372070312,794.1758422851562,796.996337890625
1544,786.1171875,789.3406372070312,796.5933837890625,796.996337890625
1545,791.3552856445312,794.981689453125,794.981689453125,802.2344360351562
1546,790.1465454101562,794.5787353515625,794.1758422851562,803.040283203125
1547,783.6996459960938,790.1465454101562,796.996337890625,799.010986328125
1548,783.2966918945312,790.952392578125,794.981689453125,794.981689453125
1549,788.5347900390625,790.952392578125,794.981689453125,792.967041015625
1550,791.7582397460938,788.937744140625,792.967041015625,789.3406372070312
1551,793.7728881835938,789.7435913085938,795.3846435546875,789.7435913085938
1552,790.1465454101562,788.937744140625,797.3992919921875,792.1611938476562
1553,788.1318969726562,788.5347900390625,792.967041015625,790.952392578125
1554,793.3699340820312,788.1318969726562,792.967041015625,793.7728881835938
1555,796.996337890625,786.5201416015625,790.952392578125,800.2197875976562
1556,792.967041015625,790.5494384765625,795.3846435546875,799.8168334960938
1557,789.3406372070312,787.3259887695312,798.2051391601562,794.5787353515625
1558,794.5787353515625,784.1025390625,792.967041015625,796.996337890625
1559,792.967041015625,788.1318969726562,793.3699340820312,801.8314819335938
1560,792.5640869140625,790.1465454101562,796.5933837890625,798.6080322265625
1561,800.2197875976562,787.7289428710938,798.6080322265625,795.7875366210938
1562,800.6226806640625,790.952392578125,797.3992919921875,797.3992919921875
1563,795.7875366210938,794.981689453125,798.2051391601562,798.2051391601562
1564,798.2051391601562,790.1465454101562,803.040283203125,794.981689453125
1565,802.6373901367188,787.7289428710938,801.4285888671875,798.6080322265625
1566,800.2197875976562,787.7289428710938,795.7875366210938,808.6813354492188
1567,794.981689453125,788.937744140625,795.3846435546875,807.87548828125
1568,793.7728881835938,793.7728881835938,801.025634765625,798.6080322265625
1569,796.1904907226562,799.010986328125,801.8314819335938,794.1758422851562
1570,802.2344360351562,799.8168334960938,798.6080322265625,802.2344360351562
1571,807.069580078125,794.5787353515625,798.6080322265625,808.6813354492188
1572,804.2490844726562,794.1758422851562,801.8314819335938,806.2637329101562
1573,803.040283203125,795.3846435546875,803.4432373046875,805.4578857421875
1574,803.040283203125,793.3699340820312,801.8314819335938,802.2344360351562
1575,799.8168334960938,793.3699340820312,798.2051391601562,797.8021850585938
